sample_in_window,time_seconds_in_window,absolute_time_seconds_in_recording,Fpz,Fp1,Fp2,AF3,AF4,AF7,AF8,Fz,F1,F2,F3,F4,F5,F6,F7,F8,FCz,FC1,FC2,FC3,FC4,FC5,FC6,FT7,FT8,Cz,C1,C2,C3,C4,C5,C6,T7,T8,CP1,CP2,CP3,CP4,CP5,CP6,TP7,TP8,Pz,P3,P4,P5,P6,P7,P8,POz,PO3,PO4,PO5,PO6,PO7,PO8,Oz,O1,O2
0,0.0,306.0,-17419.52,-29668.754,-19227.93,-9220.042,-22211.13,-20499.68,-18151.604,6692.6133,-13135.257,3576.3757,-942.39435,-26230.82,-16604.758,-11931.153,-23742.941,-17980.232,536.80383,-6318.017,-7952.802,-1266.3448,-19933.705,9228.597,-30155.057,1671.0061,-32824.08,-15674.998,-161.45589,9325.557,-1010.79224,-20723.664,7269.11,-6469.0938,-3152.9238,-25470.928,2926.9717,-5104.894,-973.96265,-3243.119,-5228.9126,2325.6716,-29340.295,-34430.3,-24681.723,-6965.1665,-1594.0533,-29383.889,-1626.3732,-29943.098,-36113.188,-32813.555,-33823.74,-36269.527,-33673.414,-29552.252,-29613.887,-32658.719,-32070.197,-30183.617,-33924.457
1,0.004,306.004,-17424.781,-29674.768,-19229.434,-9223.048,-22213.385,-20504.19,-18153.105,6691.862,-13138.264,3574.8726,-945.4009,-26229.318,-16609.268,-11928.147,-23748.955,-17985.494,536.0522,-6318.7686,-7953.553,-1268.5997,-19932.955,9224.087,-30153.553,1661.9866,-32824.83,-15674.998,-162.20752,9324.805,-1013.0471,-20723.664,7266.1035,-6469.845,-3158.1853,-25469.426,2926.9717,-5105.646,-973.96265,-3244.622,-5231.1675,2325.6716,-29340.295,-34432.555,-24681.723,-6965.1665,-1594.8049,-29384.64,-1626.3732,-29942.346,-36116.945,-32813.555,-33823.74,-36270.277,-33674.918,-29553.004,-29609.377,-32658.719,-32067.941,-30180.611,-33922.953
2,0.008,306.008,-17422.527,-29680.03,-19224.924,-9221.545,-22212.633,-20504.19,-18149.348,6692.6133,-13138.264,3576.3757,-944.64923,-26236.834,-16607.766,-11935.663,-23748.955,-17979.48,536.80383,-6318.017,-7952.0503,-1267.0964,-19933.705,9226.342,-30146.787,1664.9932,-32827.082,-15675.75,-162.20752,9326.308,-1012.29553,-20725.168,7266.1035,-6469.845,-3156.682,-25467.17,2926.9717,-5106.3975,-973.96265,-3246.1252,-5231.1675,2327.1748,-29341.047,-34431.805,-24683.225,-6967.4214,-1595.5566,-29386.143,-1626.3732,-29943.85,-36117.7,-32816.56,-33825.992,-36273.285,-33680.176,-29552.252,-29610.879,-32656.465,-32067.19,-30185.121,-33922.953
3,0.012,306.012,-17418.018,-29674.016,-19223.42,-9216.283,-22208.123,-20498.176,-18146.342,6694.868,-13134.505,3578.6306,-941.64276,-26235.33,-16604.006,-11932.657,-23744.445,-17976.475,538.30707,-6315.762,-7950.547,-1264.09,-19933.705,9228.597,-30152.8,1668.7512,-32811.3,-15675.75,-160.70427,9327.06,-1010.04065,-20725.168,7268.3584,-6465.3354,-3154.427,-25465.666,2926.9717,-5104.1426,-973.96265,-3246.1252,-5231.1675,2328.6782,-29340.295,-34429.547,-24685.48,-6968.173,-1594.0533,-29390.652,-1624.87,-29945.352,-36115.44,-32817.312,-33828.246,-36272.53,-33684.688,-29552.252,-29613.135,-32658.719,-32070.95,-30190.383,-33923.703
4,0.016,306.016,-17420.271,-29671.01,-19224.172,-9217.035,-22209.627,-20498.928,-18148.596,6694.1167,-13135.257,3577.8792,-941.64276,-26233.828,-16604.758,-11932.657,-23738.432,-17977.227,539.0587,-6316.514,-7950.547,-1265.5931,-19933.705,9228.597,-30150.547,1667.9996,-32816.56,-15674.998,-161.45589,9325.557,-1010.04065,-20724.416,7268.3584,-6467.5903,-3152.9238,-25467.17,2927.7234,-5105.646,-972.4594,-3244.622,-5231.1675,2329.4297,-29338.04,-34431.05,-24684.729,-6965.918,-1595.5566,-29388.398,-1625.6216,-29940.842,-36113.188,-32813.555,-33824.49,-36271.78,-33679.426,-29552.252,-29608.625,-32657.967,-32064.936,-30183.617,-33919.945
5,0.02,306.02,-17419.52,-29662.742,-19219.662,-9215.532,-22208.123,-20494.418,-18147.094,6694.868,-13132.25,3577.1274,-938.6362,-26227.814,-16601.0,-11929.65,-23730.916,-17975.723,539.0587,-6315.0107,-7951.2983,-1263.3383,-19931.451,9229.349,-30149.795,1670.2545,-32814.305,-15671.991,-159.95264,9326.308,-1009.289,-20722.16,7270.6133,-6465.3354,-3150.669,-25463.412,2927.7234,-5105.646,-972.4594,-3242.3672,-5228.9126,2329.4297,-29337.287,-34428.797,-24684.729,-6966.6694,-1595.5566,-29386.143,-1626.3732,-29942.346,-36112.438,-32815.81,-33826.746,-36270.277,-33676.418,-29553.756,-29610.127,-32658.719,-32067.19,-30188.127,-33924.457
6,0.024,306.024,-17419.52,-29668.754,-19219.662,-9214.028,-22208.875,-20495.17,-18147.846,6694.868,-13133.754,3577.1274,-939.3879,-26232.324,-16601.0,-11930.402,-23730.916,-17974.97,539.0587,-6315.762,-7951.2983,-1261.8351,-19932.203,9230.1,-30153.553,1670.2545,-32817.312,-15672.743,-159.95264,9326.308,-1008.5374,-20723.664,7271.3647,-6465.3354,-3149.1658,-25464.164,2929.2266,-5105.646,-971.70776,-3243.119,-5228.1606,2328.6782,-29338.791,-34429.547,-24684.729,-6965.918,-1594.8049,-29386.143,-1626.3732,-29940.092,-36117.7,-32815.06,-33824.49,-36271.03,-33677.17,-29552.252,-29607.873,-32658.719,-32064.184,-30185.121,-33925.207
7,0.028,306.028,-17415.762,-29671.762,-19222.668,-9213.277,-22205.117,-20498.928,-18146.342,6696.3716,-13131.499,3578.6306,-938.6362,-26238.338,-16599.496,-11929.65,-23733.172,-17976.475,541.3136,-6315.0107,-7949.7954,-1261.0834,-19933.705,9233.106,-30158.814,1673.261,-32824.83,-15674.998,-159.20102,9326.308,-1007.0341,-20728.174,7272.1167,-6469.845,-3146.1592,-25470.176,2929.2266,-5107.149,-970.2045,-3244.622,-5226.6577,2326.4233,-29337.287,-34433.305,-24684.729,-6965.1665,-1596.3082,-29389.902,-1627.8765,-29939.34,-36122.207,-32815.06,-33826.746,-36272.53,-33682.434,-29553.004,-29608.625,-32660.975,-32068.693,-30187.375,-33926.71
8,0.032,306.032,-17417.266,-29676.271,-19224.924,-9215.532,-22207.371,-20498.176,-18145.59,6695.62,-13133.002,3578.6306,-940.1395,-26236.834,-16600.248,-11928.147,-23739.184,-17976.475,539.0587,-6315.0107,-7949.7954,-1262.5867,-19932.955,9233.858,-30153.553,1673.261,-32823.324,-15675.75,-159.20102,9327.06,-1007.78577,-20726.67,7273.6196,-6466.0874,-3146.1592,-25468.674,2929.2266,-5107.149,-970.2045,-3243.119,-5225.906,2327.1748,-29334.281,-34434.06,-24685.48,-6963.663,-1596.3082,-29388.398,-1627.1249,-29936.334,-36120.703,-32812.8,-33823.74,-36271.78,-33678.676,-29552.252,-29604.115,-32659.47,-32067.19,-30182.865,-33922.953
9,0.036,306.036,-17416.514,-29671.01,-19221.166,-9214.028,-22207.371,-20498.176,-18152.355,6694.1167,-13135.257,3577.8792,-940.8911,-26236.082,-16600.248,-11936.415,-23736.93,-17978.729,539.0587,-6317.2656,-7949.7954,-1261.8351,-19929.197,9231.604,-30152.8,1672.5094,-32816.56,-15676.501,-161.45589,9327.812,-1007.78577,-20721.408,7273.6196,-6466.0874,-3146.1592,-25467.17,2929.9783,-5105.646,-970.9561,-3241.6155,-5224.403,2328.6782,-29332.777,-34431.05,-24683.977,-6963.663,-1593.3018,-29383.889,-1626.3732,-29932.574,-36117.7,-32812.05,-33820.73,-36270.277,-33674.164,-29551.5,-29602.611,-32657.967,-32061.178,-30177.605,-33919.945
10,0.04,306.04,-17413.508,-29663.492,-19217.408,-9210.2705,-22203.613,-20490.66,-18145.59,6696.3716,-13131.499,3580.134,-938.6362,-26233.828,-16597.994,-11928.147,-23729.412,-17970.46,539.81036,-6315.0107,-7949.0435,-1259.5802,-19926.19,9234.609,-30147.54,1677.0192,-32812.05,-15674.998,-160.70427,9327.812,-1007.78577,-20718.402,7275.123,-6461.5776,-3143.1526,-25452.889,2929.9783,-5105.646,-970.9561,-3238.6091,-5222.8994,2332.4363,-29329.02,-34426.543,-24685.48,-6965.1665,-1592.55,-29384.64,-1624.1184,-29930.32,-36113.94,-32815.81,-33823.74,-36272.53,-33674.164,-29550.75,-29607.121,-32658.719,-32068.693,-30183.617,-33923.703
11,0.044,306.044,-17410.5,-29661.99,-19219.662,-9208.016,-22204.365,-20486.15,-18144.838,6697.123,-13130.747,3580.134,-937.133,-26236.082,-16595.738,-11923.638,-23725.654,-17971.965,539.81036,-6315.0107,-7949.7954,-1257.3253,-19930.7,9236.864,-30151.297,1678.5223,-32831.594,-15674.998,-160.70427,9327.812,-1006.28253,-20722.16,7276.626,-6466.839,-3142.4011,-25455.145,2929.2266,-5105.646,-969.4529,-3240.1123,-5222.8994,2331.6846,-29331.275,-34426.543,-24684.729,-6962.9116,-1591.0469,-29385.393,-1621.8635,-29931.072,-36113.188,-32814.305,-33822.234,-36270.277,-33671.156,-29546.24,-29601.86,-32654.209,-32060.426,-30177.605,-33918.44
12,0.048,306.048,-17416.514,-29669.506,-19227.93,-9212.525,-22208.875,-20492.164,-18156.113,6694.1167,-13133.754,3577.1274,-940.8911,-26242.848,-16599.496,-11929.65,-23737.682,-17977.977,538.30707,-6318.017,-7951.2983,-1260.3318,-19930.7,9233.858,-30152.8,1674.7643,-32829.34,-15675.75,-161.45589,9327.06,-1008.5374,-20724.416,7275.8745,-6468.3423,-3143.1526,-25472.432,2927.7234,-5107.149,-970.2045,-3240.864,-5223.651,2330.1814,-29329.771,-34428.043,-24684.729,-6964.4146,-1592.55,-29389.15,-1624.87,-29930.32,-36116.195,-32815.06,-33824.49,-36271.03,-33680.176,-29550.75,-29607.121,-32657.217,-32064.184,-30179.107,-33922.2
13,0.052,306.052,-17418.768,-29668.754,-19230.938,-9214.028,-22210.379,-20493.666,-18151.604,6693.365,-13135.257,3575.6243,-942.39435,-26245.102,-16599.496,-11927.3955,-23738.432,-17980.984,536.80383,-6318.7686,-7951.2983,-1262.5867,-19929.947,9233.106,-30152.049,1677.0192,-32820.32,-15678.005,-162.20752,9327.06,-1007.78577,-20725.918,7275.8745,-6467.5903,-3142.4011,-25473.184,2928.4749,-5107.149,-970.2045,-3240.864,-5220.6445,2331.6846,-29329.771,-34422.03,-24683.225,-6962.9116,-1594.0533,-29386.895,-1623.3667,-29930.32,-36119.203,-32813.555,-33822.234,-36270.277,-33678.676,-29550.75,-29603.363,-32656.465,-32062.68,-30177.605,-33921.45
14,0.056,306.056,-17415.762,-29663.492,-19222.668,-9211.773,-22206.621,-20489.156,-18147.094,6693.365,-13133.002,3577.1274,-942.39435,-26239.09,-16597.242,-11926.644,-23736.93,-17976.475,536.80383,-6318.7686,-7950.547,-1262.5867,-19926.19,9233.106,-30146.787,1675.5159,-32816.56,-15678.005,-162.20752,9327.06,-1007.78577,-20720.658,7275.123,-6464.584,-3148.414,-25464.916,2929.2266,-5105.646,-970.9561,-3238.6091,-5222.148,2332.4363,-29329.771,-34428.797,-24681.723,-6965.1665,-1591.0469,-29389.902,-1621.8635,-29929.568,-36114.69,-32814.305,-33823.74,-36268.773,-33677.17,-29547.742,-29608.625,-32653.457,-32061.178,-30178.355,-33919.945
15,0.06,306.06,-17418.018,-29661.238,-19224.172,-9211.022,-22208.123,-20487.654,-18153.105,6693.365,-13133.754,3577.1274,-940.1395,-26232.324,-16596.49,-11923.638,-23732.42,-17974.97,536.0522,-6318.7686,-7951.2983,-1259.5802,-19928.445,9236.113,-30148.291,1680.7772,-32820.32,-15676.501,-162.20752,9326.308,-1007.78577,-20720.658,7277.378,-6467.5903,-3137.8914,-25466.418,2929.9783,-5104.894,-969.4529,-3240.1123,-5222.148,2330.1814,-29330.523,-34429.547,-24680.97,-6963.663,-1592.55,-29387.646,-1624.1184,-29931.072,-36119.203,-32815.06,-33820.73,-36265.77,-33668.152,-29547.742,-29609.377,-32655.713,-32061.93,-30176.854,-33919.195
16,0.064,306.064,-17415.762,-29658.982,-19222.668,-9211.773,-22207.371,-20486.902,-18146.342,6694.868,-13133.754,3577.8792,-940.8911,-26236.834,-16594.236,-11925.893,-23732.42,-17976.475,537.5555,-6317.2656,-7950.547,-1259.5802,-19926.941,9234.609,-30153.553,1678.5223,-32815.06,-15676.501,-160.70427,9326.308,-1008.5374,-20720.658,7275.8745,-6466.0874,-3145.4075,-25467.922,2929.2266,-5105.646,-969.4529,-3240.864,-5222.8994,2329.4297,-29328.268,-34430.3,-24682.473,-6965.1665,-1593.3018,-29385.393,-1626.3732,-29931.072,-36122.207,-32818.816,-33820.73,-36270.277,-33668.902,-29551.5,-29609.377,-32659.47,-32064.936,-30176.102,-33922.953
17,0.068,306.068,-17418.018,-29670.258,-19227.178,-9214.028,-22208.875,-20490.66,-18147.094,6694.1167,-13133.002,3577.1274,-940.8911,-26242.848,-16594.988,-11928.898,-23733.172,-17971.965,536.80383,-6318.017,-7949.7954,-1259.5802,-19929.947,9234.609,-30151.297,1677.7708,-32812.8,-15677.253,-160.70427,9327.06,-1007.78577,-20724.416,7275.123,-6465.3354,-3143.1526,-25468.674,2929.2266,-5106.3975,-970.9561,-3241.6155,-5224.403,2330.9329,-29332.027,-34428.797,-24682.473,-6966.6694,-1593.3018,-29385.393,-1626.3732,-29937.084,-36117.7,-32820.32,-33823.74,-36268.773,-33674.164,-29549.998,-29612.383,-32657.967,-32064.936,-30180.611,-33919.945
18,0.072,306.072,-17418.768,-29674.768,-19230.938,-9214.78,-22208.875,-20490.66,-18147.846,6694.1167,-13135.257,3576.3757,-941.64276,-26247.357,-16594.988,-11931.905,-23731.668,-17974.219,538.30707,-6317.2656,-7952.802,-1259.5802,-19932.203,9237.616,-30154.305,1680.0256,-32817.312,-15678.756,-159.95264,9325.557,-1006.28253,-20726.67,7278.881,-6467.5903,-3140.1462,-25470.928,2929.9783,-5108.6523,-969.4529,-3243.8704,-5221.396,2328.6782,-29326.766,-34434.06,-24683.977,-6964.4146,-1595.5566,-29381.633,-1628.628,-29931.072,-36124.46,-32821.07,-33820.73,-36271.78,-33675.668,-29551.5,-29604.867,-32663.229,-32063.432,-30176.102,-33921.45
19,0.076,306.076,-17410.5,-29664.244,-19219.662,-9208.768,-22204.365,-20484.646,-18144.086,6696.3716,-13129.995,3580.134,-937.88464,-26239.84,-16591.98,-11925.141,-23727.91,-17971.213,539.81036,-6315.762,-7949.0435,-1256.5737,-19926.941,9236.864,-30147.54,1670.2545,-32816.56,-15676.501,-159.20102,9327.06,-1005.5309,-20722.912,7277.378,-6465.3354,-3140.8977,-25467.922,2930.7297,-5107.901,-967.94965,-3242.3672,-5220.6445,2329.4297,-29328.268,-34431.05,-24682.473,-6963.663,-1594.8049,-29379.379,-1627.8765,-29932.574,-36123.71,-32820.32,-33821.484,-36271.78,-33670.406,-29551.5,-29609.377,-32663.229,-32065.688,-30182.865,-33921.45
20,0.08,306.08,-17413.508,-29664.996,-19218.158,-9211.022,-22203.613,-20487.654,-18141.08,6695.62,-13130.747,3579.3823,-937.88464,-26230.82,-16594.988,-11924.389,-23730.164,-17971.965,538.30707,-6315.762,-7949.7954,-1258.0769,-19924.688,9235.361,-30145.285,1677.0192,-32815.81,-15677.253,-159.95264,9327.06,-1005.5309,-20719.154,7275.8745,-6464.584,-3143.1526,-25467.17,2929.9783,-5106.3975,-968.70123,-3240.864,-5219.893,2329.4297,-29325.262,-34431.05,-24683.225,-6962.9116,-1594.0533,-29372.613,-1626.3732,-29929.568,-36122.207,-32819.566,-33822.234,-36271.03,-33662.89,-29550.75,-29605.617,-32660.223,-32064.184,-30180.611,-33919.945
21,0.084,306.084,-17413.508,-29663.492,-19218.158,-9212.525,-22201.36,-20487.654,-18143.336,6694.868,-13130.747,3577.8792,-940.1395,-26235.33,-16592.732,-11923.638,-23730.164,-17968.959,538.30707,-6315.762,-7949.0435,-1256.5737,-19928.445,9236.113,-30153.553,1679.274,-32809.797,-15677.253,-159.95264,9325.557,-1006.28253,-20722.912,7276.626,-6465.3354,-3143.1526,-25466.418,2931.4814,-5108.6523,-968.70123,-3241.6155,-5218.3896,2329.4297,-29323.758,-34426.543,-24683.225,-6962.9116,-1594.0533,-29374.87,-1627.8765,-29929.568,-36122.207,-32819.566,-33821.484,-36274.79,-33665.9,-29554.508,-29604.867,-32657.967,-32069.445,-30179.107,-33924.457
22,0.088,306.088,-17414.258,-29669.506,-19221.918,-9213.277,-22204.365,-20488.406,-18143.336,6694.868,-13133.002,3579.3823,-940.8911,-26233.828,-16593.484,-11922.134,-23732.42,-17968.207,537.5555,-6318.017,-7949.0435,-1258.0769,-19927.693,9236.864,-30153.553,1680.0256,-32808.293,-15679.508,-160.70427,9327.06,-1006.28253,-20724.416,7276.626,-6464.584,-3140.8977,-25467.922,2930.7297,-5109.404,-967.94965,-3242.3672,-5220.6445,2330.1814,-29324.51,-34428.043,-24684.729,-6962.9116,-1594.8049,-29377.875,-1626.3732,-29928.064,-36119.953,-32819.566,-33822.99,-36272.53,-33668.152,-29553.004,-29603.363,-32659.47,-32068.693,-30178.355,-33923.703
23,0.092,306.092,-17414.258,-29672.512,-19225.676,-9213.277,-22206.621,-20488.406,-18143.336,6694.868,-13132.25,3577.8792,-940.1395,-26237.586,-16594.236,-11921.383,-23737.682,-17969.709,538.30707,-6317.2656,-7949.0435,-1258.0769,-19928.445,9236.113,-30152.8,1680.0256,-32809.043,-15679.508,-160.70427,9327.06,-1006.28253,-20721.408,7276.626,-6463.8325,-3140.8977,-25466.418,2929.2266,-5108.6523,-968.70123,-3240.864,-5221.396,2330.9329,-29328.268,-34427.293,-24684.729,-6964.4146,-1594.8049,-29377.875,-1626.3732,-29928.064,-36120.703,-32818.816,-33824.49,-36271.78,-33667.4,-29553.756,-29607.121,-32659.47,-32074.707,-30182.115,-33923.703
24,0.096,306.096,-17415.762,-29664.996,-19221.918,-9214.028,-22206.621,-20489.156,-18146.342,6694.1167,-13132.25,3577.8792,-940.1395,-26237.586,-16594.988,-11924.389,-23736.93,-17971.213,537.5555,-6316.514,-7950.547,-1257.3253,-19928.445,9235.361,-30150.547,1679.274,-32810.547,-15678.756,-160.70427,9326.308,-1005.5309,-20719.906,7277.378,-6465.3354,-3141.6494,-25467.17,2932.2332,-5107.149,-967.94965,-3238.6091,-5219.893,2331.6846,-29326.766,-34425.79,-24683.977,-6962.9116,-1594.0533,-29376.373,-1625.6216,-29925.059,-36120.703,-32820.32,-33821.484,-36271.78,-33659.883,-29554.508,-29604.867,-32659.47,-32067.19,-30179.107,-33922.953
25,0.1,306.1,-17415.01,-29659.734,-19219.662,-9213.277,-22206.621,-20489.156,-18145.59,6694.868,-13131.499,3578.6306,-939.3879,-26230.07,-16594.988,-11922.886,-23736.178,-17972.717,538.30707,-6317.2656,-7949.7954,-1258.8285,-19926.941,9233.858,-30152.8,1677.7708,-32812.05,-15677.253,-160.70427,9327.06,-1006.28253,-20719.154,7275.123,-6463.8325,-3143.9043,-25464.164,2930.7297,-5107.901,-969.4529,-3238.6091,-5220.6445,2332.4363,-29327.518,-34424.285,-24685.48,-6964.4146,-1593.3018,-29376.373,-1624.1184,-29928.064,-36117.7,-32821.07,-33823.74,-36272.53,-33662.14,-29556.01,-29606.37,-32660.223,-32072.451,-30178.355,-33923.703
26,0.104,306.104,-17415.762,-29664.996,-19224.172,-9213.277,-22198.352,-20489.156,-18150.1,6695.62,-13129.995,3574.8726,-938.6362,-26236.082,-16594.988,-11927.3955,-23740.688,-17977.227,538.30707,-6315.762,-7952.0503,-1260.3318,-19929.197,9234.609,-30152.8,1677.7708,-32815.81,-15676.501,-159.20102,9326.308,-1005.5309,-20724.416,7277.378,-6466.0874,-3142.4011,-25476.19,2932.2332,-5107.901,-968.70123,-3240.864,-5220.6445,2329.4297,-29326.766,-34431.05,-24686.232,-6963.663,-1594.8049,-29377.875,-1627.1249,-29928.816,-36126.72,-32818.816,-33823.74,-36273.285,-33662.14,-29558.266,-29607.873,-32665.484,-32070.95,-30178.355,-33922.953
27,0.108,306.108,-17417.266,-29673.264,-19226.428,-9214.028,-22206.621,-20490.66,-18148.596,6694.868,-13131.499,3578.6306,-940.8911,-26240.592,-16594.236,-11927.3955,-23742.941,-17976.475,538.30707,-6316.514,-7949.7954,-1260.3318,-19929.947,9234.609,-30151.297,1677.0192,-32815.06,-15678.756,-160.70427,9326.308,-1006.28253,-20724.416,7275.123,-6463.081,-3143.9043,-25473.936,2929.9783,-5107.901,-969.4529,-3240.864,-5222.148,2329.4297,-29329.02,-34427.293,-24687.734,-6965.918,-1595.5566,-29383.137,-1628.628,-29935.582,-36128.22,-32822.574,-33826.746,-36276.29,-33665.9,-29559.77,-29611.63,-32668.49,-32072.451,-30183.617,-33926.71
28,0.112,306.112,-17418.018,-29671.01,-19227.93,-9211.773,-22206.621,-20490.66,-18153.857,6695.62,-13129.995,3577.1274,-938.6362,-26241.344,-16592.732,-11928.147,-23740.688,-17978.729,539.81036,-6314.2593,-7950.547,-1258.0769,-19932.203,9236.864,-30151.297,1680.7772,-32820.32,-15677.253,-159.95264,9327.06,-1004.77924,-20727.422,7276.626,-6466.0874,-3141.6494,-25474.686,2930.7297,-5110.907,-969.4529,-3242.3672,-5222.8994,2327.1748,-29327.518,-34431.805,-24687.734,-6966.6694,-1597.0598,-29383.137,-1630.1313,-29935.582,-36131.98,-32821.82,-33826.746,-36275.54,-33668.902,-29559.77,-29613.887,-32670.746,-32077.713,-30185.121,-33928.215
29,0.116,306.116,-17418.018,-29666.5,-19227.178,-9212.525,-22208.123,-20491.412,-18157.615,6694.1167,-13130.747,3576.3757,-938.6362,-26243.6,-16594.988,-11930.402,-23739.184,-17982.486,537.5555,-6315.762,-7952.802,-1258.0769,-19935.209,9234.609,-30155.057,1678.5223,-32824.83,-15677.253,-160.70427,9324.805,-1005.5309,-20729.678,7275.8745,-6469.0938,-3143.9043,-25480.7,2931.4814,-5110.156,-968.70123,-3243.119,-5220.6445,2324.1685,-29326.766,-34439.32,-24686.232,-6965.1665,-1597.8115,-29377.875,-1631.6346,-29931.824,-36134.234,-32818.816,-33821.484,-36274.035,-33665.9,-29557.514,-29606.37,-32670.746,-32071.7,-30177.605,-33924.457
30,0.12,306.12,-17416.514,-29660.486,-19222.668,-9213.277,-22208.123,-20492.916,-18156.113,6694.1167,-13129.995,3575.6243,-937.88464,-26237.586,-16596.49,-11928.898,-23736.93,-17980.232,536.80383,-6315.762,-7952.802,-1259.5802,-19932.955,9233.858,-30154.305,1677.0192,-32819.566,-15675.75,-159.95264,9324.053,-1007.78577,-20726.67,7275.8745,-6466.839,-3143.9043,-25479.947,2930.7297,-5111.6587,-970.9561,-3242.3672,-5222.148,2327.1748,-29326.766,-34437.816,-24687.734,-6967.4214,-1597.8115,-29378.627,-1632.3862,-29934.078,-36131.98,-32821.07,-33823.74,-36275.54,-33665.9,-29559.77,-29611.63,-32673.0,-32078.465,-30182.865,-33925.96
31,0.124,306.124,-17418.018,-29664.996,-19222.668,-9214.78,-22209.627,-20492.164,-18152.355,6693.365,-13131.499,3575.6243,-939.3879,-26240.592,-16594.236,-11928.147,-23742.191,-17978.729,536.80383,-6315.762,-7951.2983,-1260.3318,-19932.955,9232.3545,-30152.049,1676.2675,-32816.56,-15674.246,-160.70427,9327.06,-1007.78577,-20723.664,7273.6196,-6466.839,-3145.4075,-25480.7,2929.9783,-5110.156,-971.70776,-3241.6155,-5225.1543,2327.9265,-29329.02,-34436.312,-24688.486,-6967.4214,-1597.8115,-29381.633,-1631.6346,-29936.334,-36134.234,-32820.32,-33823.74,-36277.043,-33666.65,-29559.018,-29612.383,-32672.248,-32076.209,-30183.617,-33926.71
32,0.128,306.128,-17416.514,-29668.754,-19221.918,-9214.028,-22205.87,-20491.412,-18148.596,6694.868,-13131.499,3577.1274,-940.1395,-26241.344,-16594.988,-11924.389,-23742.941,-17974.219,538.30707,-6315.762,-7949.7954,-1260.3318,-19931.451,9234.609,-30149.043,1677.7708,-32812.05,-15675.75,-161.45589,9327.812,-1006.28253,-20723.664,7275.8745,-6463.081,-3142.4011,-25476.941,2929.2266,-5109.404,-970.9561,-3240.1123,-5223.651,2330.9329,-29329.771,-34433.305,-24687.734,-6966.6694,-1595.5566,-29385.393,-1629.3798,-29936.334,-36131.98,-32820.32,-33823.74,-36275.54,-33672.66,-29557.514,-29611.63,-32666.986,-32076.209,-30186.625,-33924.457
33,0.132,306.132,-17416.514,-29670.258,-19224.924,-9214.78,-22206.621,-20491.412,-18149.348,6694.1167,-13133.002,3575.6243,-940.1395,-26242.096,-16595.738,-11925.141,-23742.191,-17974.97,537.5555,-6317.2656,-7952.0503,-1260.3318,-19932.955,9235.361,-30150.547,1677.7708,-32811.3,-15678.005,-161.45589,9326.308,-1006.28253,-20726.67,7275.8745,-6466.0874,-3141.6494,-25476.19,2928.4749,-5109.404,-969.4529,-3241.6155,-5221.396,2330.1814,-29329.771,-34433.305,-24687.734,-6964.4146,-1594.8049,-29385.393,-1628.628,-29930.32,-36127.47,-32819.566,-33820.73,-36277.793,-33670.406,-29556.762,-29605.617,-32665.484,-32072.451,-30179.107,-33922.953
34,0.136,306.136,-17414.258,-29665.748,-19219.662,-9213.277,-22206.621,-20489.908,-18147.094,6693.365,-13133.002,3575.6243,-939.3879,-26238.338,-16597.242,-11924.389,-23740.688,-17971.965,536.80383,-6317.2656,-7952.0503,-1258.8285,-19932.955,9234.609,-30155.057,1679.274,-32809.797,-15676.501,-161.45589,9326.308,-1005.5309,-20724.416,7278.1294,-6465.3354,-3139.3945,-25474.686,2931.4814,-5109.404,-967.198,-3240.1123,-5218.3896,2330.9329,-29322.256,-34430.3,-24685.48,-6962.9116,-1594.8049,-29380.13,-1627.8765,-29929.568,-36131.227,-32818.816,-33821.484,-36274.79,-33668.152,-29557.514,-29604.115,-32667.738,-32075.459,-30180.611,-33924.457
35,0.14,306.14,-17414.258,-29663.492,-19218.158,-9214.028,-22205.87,-20489.908,-18163.629,6691.1104,-13135.257,3574.8726,-942.39435,-26229.318,-16597.242,-11910.108,-23737.682,-17975.723,535.3006,-6319.5205,-7951.2983,-1261.0834,-19928.445,9233.858,-30150.547,1679.274,-32816.56,-15676.501,-162.20752,9325.557,-1007.0341,-20719.906,7278.1294,-6464.584,-3141.6494,-25465.666,2929.9783,-5108.6523,-969.4529,-3240.1123,-5220.6445,2330.1814,-29323.008,-34434.81,-24687.734,-6963.663,-1593.3018,-29379.379,-1628.628,-29929.568,-36129.723,-32816.56,-33820.73,-36274.79,-33669.656,-29555.26,-29608.625,-32663.98,-32073.203,-30180.611,-33922.2
36,0.144,306.144,-17409.748,-29658.982,-19217.408,-9211.773,-22204.365,-20486.15,-18142.584,6693.365,-13132.25,3575.6243,-940.8911,-26234.58,-16594.988,-11929.65,-23730.916,-17970.46,536.80383,-6318.017,-7951.2983,-1258.0769,-19926.941,9237.616,-30153.553,1685.287,-32812.8,-15677.253,-161.45589,9326.308,-1006.28253,-20719.906,7281.1357,-6466.839,-3135.6365,-25480.7,2932.2332,-5107.901,-967.94965,-3240.1123,-5217.638,2329.4297,-29317.746,-34431.805,-24687.734,-6961.408,-1595.5566,-29375.621,-1629.3798,-29924.307,-36134.984,-32816.56,-33817.727,-36273.285,-33668.152,-29555.26,-29602.611,-32665.484,-32068.693,-30175.35,-33921.45
37,0.148,306.148,-17412.004,-29668.754,-19221.166,-9213.277,-22202.861,-20490.66,-18142.584,6694.1167,-13133.754,3577.1274,-941.64276,-26240.592,-16597.994,-11923.638,-23739.936,-17971.213,536.80383,-6318.7686,-7949.7954,-1261.8351,-19926.941,9234.609,-30149.795,1678.5223,-32815.06,-15677.253,-161.45589,9327.812,-1007.0341,-20722.16,7277.378,-6464.584,-3142.4011,-25474.686,2929.2266,-5107.149,-968.70123,-3240.1123,-5220.6445,2334.6912,-29323.008,-34422.785,-24688.486,-6963.663,-1594.8049,-29378.627,-1625.6216,-29925.81,-36125.215,-32817.312,-33821.484,-36272.53,-33672.66,-29553.004,-29602.611,-32666.236,-32068.693,-30176.102,-33925.96
38,0.152,306.152,-17406.742,-29664.996,-19220.414,-9208.768,-22198.352,-20484.646,-18140.328,6697.123,-13129.995,3578.6306,-937.133,-26242.096,-16594.236,-11922.134,-23730.916,-17972.717,540.56195,-6315.0107,-7949.0435,-1257.3253,-19926.19,9238.368,-30152.8,1683.7838,-32809.797,-15676.501,-157.69777,9327.06,-1004.02765,-20726.67,7280.3843,-6467.5903,-3137.1396,-25481.451,2930.7297,-5110.156,-967.94965,-3241.6155,-5218.3896,2331.6846,-29321.504,-34426.543,-24689.99,-6964.4146,-1597.0598,-29379.379,-1627.8765,-29928.064,-36125.965,-32820.32,-33823.74,-36276.29,-33677.17,-29554.508,-29607.873,-32663.98,-32074.707,-30181.363,-33930.47
39,0.156,306.156,-17402.232,-29655.225,-19212.146,-9204.258,-22196.85,-20479.387,-18138.074,6698.6265,-13127.74,3581.6372,-933.3749,-26236.082,-16592.732,-11917.624,-23725.654,-17966.703,541.3136,-6313.5073,-7947.5405,-1256.5737,-19923.184,9239.119,-30143.781,1686.0386,-32807.54,-15674.998,-156.94614,9328.5625,-1003.276,-20722.912,7280.3843,-6463.081,-3138.643,-25472.432,2931.4814,-5107.901,-967.94965,-3241.6155,-5219.141,2333.1877,-29324.51,-34426.543,-24692.244,-6966.6694,-1599.3147,-29380.13,-1628.628,-29933.326,-36125.965,-32824.08,-33826.746,-36277.043,-33675.668,-29556.01,-29612.383,-32665.484,-32078.465,-30188.127,-33930.47
40,0.16,306.16,-17400.729,-29647.709,-19203.879,-9203.506,-22195.346,-20477.883,-18137.322,6698.6265,-13126.989,3580.8855,-934.1265,-26229.318,-16589.727,-11919.879,-23725.654,-17967.455,541.3136,-6313.5073,-7947.5405,-1255.0704,-19922.432,9239.119,-30142.277,1686.7903,-32815.81,-15672.743,-156.94614,9326.308,-1003.276,-20723.664,7281.1357,-6466.839,-3137.8914,-25468.674,2931.4814,-5109.404,-967.94965,-3242.3672,-5217.638,2330.1814,-29322.256,-34425.79,-24689.99,-6964.4146,-1600.0664,-29374.117,-1629.3798,-29930.32,-36125.215,-32821.07,-33824.49,-36277.793,-33674.164,-29556.762,-29607.873,-32663.98,-32074.707,-30182.865,-33931.973
41,0.164,306.164,-17412.756,-29664.244,-19213.648,-9213.277,-22200.607,-20493.666,-18141.08,6695.62,-13131.499,3578.6306,-940.8911,-26233.828,-16598.746,-11919.879,-23738.432,-17971.213,539.81036,-6315.762,-7947.5405,-1261.0834,-19922.432,9232.3545,-30137.768,1676.2675,-32810.547,-15673.495,-158.44939,9327.812,-1007.0341,-20722.912,7275.8745,-6465.3354,-3143.1526,-25475.438,2930.7297,-5109.404,-968.70123,-3240.864,-5220.6445,2330.9329,-29325.262,-34428.043,-24689.99,-6965.918,-1597.8115,-29378.627,-1628.628,-29931.824,-36126.72,-32819.566,-33826.746,-36276.29,-33675.668,-29556.762,-29608.625,-32667.738,-32076.96,-30181.363,-33928.965
42,0.168,306.168,-17444.324,-29698.82,-19251.982,-9229.8125,-22225.41,-20516.215,-18171.145,6685.097,-13142.021,3567.3562,-951.4139,-26254.873,-16608.516,-11935.663,-23754.969,-17990.756,532.29407,-6321.7754,-7955.0566,-1266.3448,-19933.705,9226.342,-30162.572,1668.7512,-32822.574,-15678.756,-161.45589,9323.302,-1008.5374,-20732.684,7272.1167,-6470.597,-3148.414,-25480.7,2931.4814,-5108.6523,-970.2045,-3242.3672,-5222.8994,2327.9265,-29327.518,-34434.06,-24686.982,-6965.1665,-1599.3147,-29382.385,-1629.3798,-29934.078,-36126.72,-32815.06,-33825.242,-36273.285,-33674.918,-29555.26,-29607.873,-32665.484,-32072.451,-30182.865,-33928.215
43,0.172,306.172,-17445.826,-29701.074,-19262.504,-9228.31,-22230.672,-20509.451,-18184.674,6683.5938,-13140.519,3563.5981,-949.159,-26260.135,-16604.006,-11943.931,-23745.197,-17998.271,531.5425,-6322.527,-7958.063,-1263.3383,-19937.465,9230.852,-30163.324,1676.2675,-32824.83,-15678.756,-160.70427,9323.302,-1007.0341,-20735.69,7273.6196,-6471.3486,-3145.4075,-25477.693,2930.7297,-5108.6523,-968.70123,-3242.3672,-5219.893,2328.6782,-29325.262,-34428.797,-24686.982,-6966.6694,-1597.8115,-29385.393,-1626.3732,-29934.83,-36125.965,-32818.816,-33825.242,-36274.035,-33673.414,-29555.26,-29610.879,-32666.236,-32077.713,-30185.121,-33926.71
44,0.176,306.176,-17413.508,-29670.258,-19224.172,-9209.519,-22211.88,-20480.137,-18161.375,6691.862,-13130.747,3571.866,-937.88464,-26248.11,-16590.479,-11931.153,-23719.643,-17982.486,535.3006,-6318.017,-7954.305,-1256.5737,-19930.7,9241.374,-30158.062,1687.5419,-32823.324,-15677.253,-159.20102,9324.053,-1004.02765,-20728.926,7281.8877,-6469.0938,-3134.1333,-25473.184,2931.4814,-5106.3975,-966.4464,-3240.1123,-5215.3833,2331.6846,-29319.248,-34427.293,-24685.48,-6962.9116,-1595.5566,-29377.123,-1624.87,-29931.824,-36122.207,-32814.305,-33819.98,-36271.03,-33665.9,-29553.004,-29604.867,-32663.98,-32072.451,-30179.107,-33922.2
45,0.18,306.18,-17405.99,-29658.232,-19219.662,-9205.761,-22208.123,-20471.117,-18160.623,6694.868,-13128.492,3574.1208,-932.6232,-26245.102,-16584.465,-11929.65,-23716.635,-17983.238,536.80383,-6315.0107,-7952.802,-1255.0704,-19931.451,9242.126,-30153.553,1687.5419,-32820.32,-15674.246,-158.44939,9324.805,-1004.02765,-20728.174,7283.3906,-6469.0938,-3131.1267,-25473.184,2930.7297,-5107.901,-967.198,-3240.864,-5215.3833,2330.1814,-29314.738,-34428.043,-24684.729,-6964.4146,-1595.5566,-29376.373,-1626.3732,-29929.568,-36122.96,-32816.56,-33821.484,-36271.03,-33662.14,-29553.756,-29607.121,-32666.986,-32077.713,-30179.86,-33925.207
46,0.184,306.184,-17408.998,-29655.977,-19227.178,-9205.761,-22214.137,-20470.367,-18171.896,6694.1167,-13126.989,3572.6177,-934.8781,-26248.86,-16582.96,-11937.918,-23714.38,-17993.01,536.80383,-6315.762,-7955.0566,-1255.822,-19935.209,9242.126,-30159.566,1680.0256,-32824.83,-15674.246,-159.20102,9324.053,-1004.77924,-20731.18,7281.8877,-6471.3486,-3133.3816,-25478.445,2930.7297,-5107.901,-967.94965,-3242.3672,-5217.638,2327.9265,-29317.746,-34431.805,-24686.982,-6965.1665,-1597.8115,-29380.883,-1629.3798,-29931.824,-36124.46,-32819.566,-33822.234,-36273.285,-33667.4,-29556.762,-29609.377,-32667.738,-32082.223,-30179.86,-33928.215
47,0.188,306.188,-17398.475,-29648.46,-19221.166,-9200.499,-22211.88,-20461.348,-18170.393,6696.3716,-13126.989,3574.1208,-931.12,-26253.37,-16578.451,-11936.415,-23709.12,-17993.01,537.5555,-6313.5073,-7953.553,-1253.5671,-19936.713,9248.139,-30159.566,1696.5614,-32827.836,-15676.501,-157.69777,9325.557,-1002.5244,-20732.684,7285.6455,-6469.845,-3128.12,-25479.195,2932.9846,-5107.901,-967.198,-3243.119,-5215.3833,2329.4297,-29317.746,-34434.81,-24688.486,-6966.6694,-1599.3147,-29380.13,-1630.1313,-29930.32,-36125.215,-32821.07,-33823.74,-36272.53,-33670.406,-29558.266,-29608.625,-32667.738,-32079.969,-30179.86,-33928.215
48,0.192,306.192,-17396.97,-29645.455,-19224.924,-9198.244,-22214.137,-20455.334,-18177.91,6697.875,-13125.485,3574.1208,-925.85864,-26258.63,-16573.19,-11940.173,-23702.354,-17999.775,539.81036,-6311.2524,-7953.553,-1250.5607,-19941.223,9251.897,-30161.82,1701.8228,-32833.098,-15674.998,-156.94614,9324.805,-999.5179,-20735.69,7288.6523,-6474.355,-3126.617,-25481.451,2932.2332,-5108.6523,-966.4464,-3244.622,-5213.88,2325.6716,-29315.49,-34437.062,-24688.486,-6965.918,-1600.818,-29378.627,-1631.6346,-29925.81,-36130.477,-32821.82,-33822.99,-36273.285,-33672.66,-29560.52,-29609.377,-32673.0,-32080.719,-30180.611,-33930.47
49,0.196,306.196,-17396.97,-29633.428,-19225.676,-9193.734,-22211.88,-20447.066,-18186.178,6698.6265,-13121.728,3574.8726,-922.8521,-26253.37,-16566.426,-11944.683,-23691.832,-18005.787,539.81036,-6308.9976,-7954.305,-1245.2993,-19938.967,9255.655,-30159.566,1707.8358,-32836.855,-15674.246,-154.69127,9324.805,-997.263,-20733.436,7290.907,-6472.852,-3122.1072,-25479.195,2933.7363,-5107.149,-964.1915,-3242.3672,-5210.8735,2326.4233,-29315.49,-34435.562,-24686.982,-6963.663,-1597.8115,-29377.123,-1630.1313,-29925.059,-36129.723,-32822.574,-33821.484,-36271.78,-33665.145,-29560.52,-29607.121,-32669.242,-32078.465,-30176.854,-33928.965
50,0.2,306.2,-17391.709,-29625.16,-19220.414,-9190.729,-22213.385,-20439.549,-18189.936,6697.875,-13120.976,3574.8726,-920.5972,-26256.377,-16563.42,-11949.192,-23683.564,-18010.297,539.81036,-6309.7495,-7956.56,-1244.5477,-19941.223,9257.158,-30168.586,1708.5874,-32845.12,-15672.743,-156.94614,9321.798,-997.263,-20737.193,7293.162,-6479.6167,-3121.3555,-25488.967,2933.7363,-5110.156,-964.9431,-3244.622,-5207.115,2322.665,-29312.484,-34438.566,-24686.232,-6962.1597,-1599.3147,-29374.87,-1633.1378,-29922.053,-36131.227,-32820.32,-33818.477,-36272.53,-33658.38,-29561.271,-29601.86,-32670.746,-32076.96,-30171.592,-33925.96
51,0.204,306.204,-17393.213,-29625.912,-19223.42,-9189.225,-22215.64,-20436.543,-18195.95,6699.378,-13119.473,3574.8726,-918.34235,-26260.135,-16560.412,-11951.447,-23678.303,-18014.807,540.56195,-6308.9976,-7955.0566,-1243.796,-19943.477,9260.916,-30165.578,1713.8488,-32844.37,-15672.743,-153.93964,9322.55,-995.75977,-20734.938,7295.417,-6477.362,-3119.8523,-25485.209,2932.9846,-5108.6523,-963.4399,-3243.8704,-5209.37,2324.1685,-29313.988,-34437.062,-24687.734,-6964.4146,-1600.0664,-29377.123,-1631.6346,-29925.059,-36127.47,-32821.07,-33819.98,-36271.03,-33665.9,-29560.52,-29607.873,-32670.746,-32082.223,-30176.854,-33928.215
52,0.208,306.208,-17384.945,-29619.898,-19219.662,-9183.964,-22213.385,-20425.27,-18198.955,6700.8813,-13119.473,3575.6243,-915.3359,-26268.402,-16553.648,-11954.454,-23670.785,-18018.564,540.56195,-6307.4946,-7955.0566,-1239.2863,-19944.229,9266.178,-30167.082,1719.1101,-32851.887,-15674.998,-154.69127,9321.798,-992.00165,-20740.951,7297.672,-6481.1196,-3117.5974,-25490.47,2932.9846,-5109.404,-962.68823,-3247.6287,-5208.6187,2320.4102,-29316.994,-34441.574,-24687.734,-6962.9116,-1600.818,-29375.621,-1633.8895,-29928.064,-36131.227,-32820.32,-33819.227,-36271.78,-33668.152,-29559.77,-29603.363,-32671.496,-32082.223,-30173.846,-33926.71
53,0.212,306.212,-17386.45,-29624.408,-19227.93,-9184.716,-22217.143,-20426.02,-18210.23,6700.8813,-13116.466,3574.8726,-913.081,-26275.168,-16551.393,-11958.212,-23668.531,-18027.584,542.0652,-6305.2397,-7955.808,-1237.0314,-19946.484,9268.433,-30170.088,1721.365,-32857.9,-15674.246,-153.18802,9321.798,-988.9951,-20744.709,7302.1816,-6484.1265,-3110.8328,-25492.725,2934.488,-5110.907,-960.4334,-3249.1318,-5204.109,2319.6587,-29308.727,-34442.324,-24686.982,-6960.6567,-1602.3212,-29370.36,-1634.6411,-29922.805,-36130.477,-32821.07,-33818.477,-36271.78,-33665.9,-29560.52,-29605.617,-32673.752,-32080.719,-30173.846,-33926.71
54,0.216,306.216,-17383.441,-29616.14,-19223.42,-9180.206,-22217.143,-20416.25,-18210.23,6701.633,-13112.708,3574.8726,-908.5712,-26271.408,-16546.13,-11960.467,-23659.512,-18029.088,542.0652,-6302.985,-7955.808,-1232.5217,-19944.229,9272.942,-30174.598,1727.378,-32857.9,-15672.743,-151.68477,9321.047,-986.74023,-20743.207,7305.9395,-6484.878,-3107.8264,-25493.477,2935.9912,-5108.6523,-958.1785,-3247.6287,-5201.854,2318.1553,-29301.96,-34441.574,-24683.977,-6957.65,-1600.818,-29365.85,-1633.1378,-29918.295,-36127.47,-32818.816,-33817.727,-36269.527,-33660.637,-29556.762,-29600.357,-32669.994,-32076.96,-30170.84,-33925.207
55,0.22,306.22,-17380.436,-29605.617,-19220.414,-9177.199,-22217.895,-20409.484,-18214.74,6701.633,-13111.205,3573.3694,-907.81964,-26271.408,-16542.373,-11966.4795,-23657.258,-18034.35,541.3136,-6303.7363,-7958.063,-1231.0184,-19946.484,9275.949,-30177.605,1733.391,-32855.645,-15671.24,-150.93314,9320.295,-987.4919,-20740.2,7308.9463,-6484.878,-3101.0618,-25491.975,2936.743,-5110.907,-957.4269,-3246.1252,-5199.599,2321.1619,-29298.955,-34437.816,-24685.48,-6957.65,-1600.818,-29367.354,-1630.8829,-29916.791,-36119.953,-32818.816,-33817.727,-36271.03,-33656.125,-29557.514,-29600.357,-32671.496,-32079.217,-30171.592,-33925.207
56,0.224,306.224,-17384.193,-29608.625,-19229.434,-9176.447,-22224.66,-20406.479,-18227.518,6701.633,-13111.957,3571.1145,-907.068,-26281.18,-16542.373,-11976.251,-23650.492,-18044.121,539.81036,-6303.7363,-7960.318,-1231.0184,-19954.0,9276.7,-30185.873,1730.3845,-32866.168,-15672.743,-150.93314,9318.04,-986.74023,-20745.46,7308.1943,-6492.394,-3104.8198,-25500.994,2936.743,-5111.6587,-957.4269,-3252.1384,-5200.3506,2313.6455,-29301.96,-34452.848,-24686.982,-6957.65,-1605.3278,-29366.602,-1636.896,-29919.797,-36134.234,-32821.07,-33818.477,-36275.54,-33659.883,-29562.775,-29601.86,-32674.504,-32080.719,-30174.598,-33925.96
57,0.228,306.228,-17377.43,-29606.37,-19228.682,-9172.689,-22223.156,-20398.963,-18230.523,6702.385,-13111.205,3572.6177,-901.80664,-26286.441,-16538.615,-11977.003,-23645.982,-18044.873,541.3136,-6302.233,-7960.318,-1228.7635,-19956.254,9281.21,-30185.121,1737.1492,-32867.67,-15672.743,-150.93314,9319.543,-982.9821,-20748.467,7311.9526,-6493.8975,-3098.0552,-25500.242,2935.9912,-5111.6587,-955.92365,-3249.8835,-5197.344,2315.9004,-29299.707,-34452.098,-24686.982,-6957.65,-1603.8245,-29366.602,-1634.6411,-29915.287,-36131.227,-32819.566,-33815.47,-36273.285,-33658.38,-29560.52,-29595.096,-32671.496,-32073.955,-30173.096,-33923.703
58,0.232,306.232,-17378.932,-29608.625,-19231.688,-9173.441,-22226.162,-20397.459,-18235.033,6700.8813,-13112.708,3570.3628,-904.8131,-26286.441,-16537.863,-11981.513,-23645.23,-18050.885,539.0587,-6302.985,-7961.8213,-1228.7635,-19959.262,9281.962,-30187.375,1739.404,-32869.926,-15674.246,-151.68477,9318.792,-983.73376,-20750.723,7311.9526,-6493.8975,-3098.807,-25501.744,2935.2395,-5111.6587,-956.67523,-3250.635,-5198.0957,2315.9004,-29303.465,-34449.844,-24685.48,-6957.65,-1602.3212,-29365.85,-1633.8895,-29916.791,-36128.22,-32818.062,-33816.223,-36273.285,-33659.883,-29557.514,-29597.35,-32666.986,-32075.459,-30174.598,-33919.945
59,0.236,306.236,-17375.926,-29601.107,-19224.172,-9171.187,-22224.66,-20390.693,-18237.29,6701.633,-13110.453,3571.1145,-901.80664,-26279.678,-16531.852,-11983.768,-23638.467,-18055.395,540.56195,-6301.4814,-7961.8213,-1226.5087,-19959.262,9284.969,-30194.893,1743.1621,-32867.67,-15673.495,-150.18152,9316.537,-982.2305,-20749.97,7315.711,-6495.401,-3094.297,-25504.752,2937.4944,-5113.9136,-955.172,-3250.635,-5194.3374,2312.894,-29298.955,-34450.594,-24682.473,-6956.147,-1602.3212,-29362.092,-1634.6411,-29915.287,-36131.98,-32820.32,-33816.223,-36271.78,-33656.125,-29559.018,-29596.598,-32668.49,-32079.217,-30172.344,-33922.2
60,0.24,306.24,-17376.678,-29595.848,-19225.676,-9168.932,-22226.162,-20386.936,-18244.805,6700.8813,-13110.453,3568.8596,-899.55176,-26275.918,-16529.596,-11987.525,-23629.447,-18062.912,539.81036,-6301.4814,-7964.076,-1222.7505,-19964.523,9287.224,-30197.146,1746.9203,-32872.934,-15673.495,-148.67827,9314.282,-981.4789,-20752.227,7317.966,-6499.9106,-3092.0422,-25510.014,2938.246,-5115.417,-955.172,-3254.3933,-5193.586,2307.6326,-29295.95,-34453.6,-24684.729,-6956.8984,-1606.8309,-29361.34,-1639.9025,-29916.04,-36134.984,-32821.07,-33818.477,-36275.54,-33659.133,-29563.527,-29601.86,-32673.752,-32087.484,-30176.854,-33928.965
61,0.244,306.244,-17381.188,-29598.102,-19233.943,-9171.187,-22230.672,-20386.184,-18254.576,6699.378,-13111.957,3567.3562,-899.55176,-26282.684,-16526.59,-11993.538,-23629.447,-18071.93,538.30707,-6301.4814,-7965.5796,-1221.9989,-19968.281,9288.727,-30202.408,1746.9203,-32880.45,-15673.495,-148.67827,9312.778,-980.72723,-20755.232,7317.214,-6503.6685,-3093.5454,-25513.02,2939.7493,-5115.417,-953.66876,-3254.3933,-5195.0894,2306.1294,-29300.459,-34453.6,-24681.723,-6953.892,-1606.8309,-29361.34,-1639.1509,-29916.791,-36137.992,-32816.56,-33813.97,-36271.03,-33660.637,-29561.271,-29597.35,-32669.242,-32081.47,-30169.336,-33921.45
62,0.248,306.248,-17374.422,-29598.102,-19231.688,-9165.173,-22228.418,-20376.414,-18253.072,6701.633,-13108.95,3568.8596,-895.79364,-26291.703,-16520.576,-11994.29,-23621.93,-18071.93,539.81036,-6300.73,-7965.5796,-1220.4957,-19969.783,9294.739,-30203.16,1754.4365,-32883.457,-15674.246,-148.67827,9313.53,-978.4724,-20757.486,7321.7236,-6504.4204,-3087.5325,-25517.53,2938.246,-5115.417,-953.66876,-3255.8965,-5195.0894,2304.6262,-29299.707,-34459.613,-24683.225,-6955.395,-1607.5826,-29362.844,-1642.9089,-29916.04,-36144.004,-32819.566,-33816.973,-36274.035,-33668.152,-29561.271,-29603.363,-32671.496,-32086.732,-30176.854,-33923.703
63,0.252,306.252,-17373.672,-29599.605,-19230.938,-9164.422,-22232.176,-20374.91,-18257.582,6699.378,-13109.702,3567.3562,-896.5452,-26291.703,-16519.072,-11996.545,-23615.918,-18074.938,538.30707,-6302.985,-7966.331,-1219.744,-19969.033,9296.994,-30202.408,1755.9398,-32885.71,-15677.253,-149.42989,9313.53,-979.224,-20758.238,7321.7236,-6503.6685,-3086.7808,-25505.504,2936.743,-5115.417,-952.9171,-3255.8965,-5194.3374,2306.1294,-29301.96,-34456.605,-24684.729,-6956.147,-1608.3342,-29362.844,-1641.4058,-29916.791,-36141.0,-32820.32,-33816.973,-36274.035,-33668.152,-29560.52,-29605.617,-32674.504,-32087.484,-30179.86,-33924.457
64,0.256,306.256,-17382.69,-29598.854,-19239.205,-9169.683,-22239.691,-20375.662,-18268.855,6696.3716,-13113.46,3562.8464,-901.055,-26293.207,-16522.832,-12004.8125,-23618.172,-18084.709,534.54895,-6304.488,-7970.841,-1221.9989,-19974.293,9293.988,-30211.428,1754.4365,-32893.977,-15676.501,-149.42989,9310.523,-980.72723,-20763.5,7321.7236,-6513.44,-3087.5325,-25526.549,2938.9978,-5115.417,-952.9171,-3257.3997,-5192.8345,2299.3647,-29295.95,-34458.86,-24681.723,-6952.3887,-1606.8309,-29360.588,-1641.4058,-29913.033,-36140.246,-32816.56,-33812.465,-36269.527,-33659.133,-29559.77,-29598.102,-32672.248,-32084.479,-30172.344,-33921.45
65,0.26,306.26,-17381.94,-29596.598,-19236.95,-9167.428,-22240.443,-20373.406,-18271.111,6695.62,-13113.46,3562.8464,-900.30334,-26293.207,-16520.576,-12007.819,-23615.166,-18086.21,534.54895,-6302.985,-7969.3374,-1221.2473,-19975.797,9293.236,-30210.676,1755.1881,-32893.977,-15675.75,-150.18152,9310.523,-979.97565,-20763.5,7322.475,-6511.9365,-3086.0293,-25523.543,2938.9978,-5114.6655,-952.1655,-3255.8965,-5192.0825,2302.3713,-29297.451,-34458.86,-24681.723,-6953.1406,-1607.5826,-29359.836,-1642.9089,-29913.033,-36137.992,-32818.062,-33813.97,-36271.03,-33659.883,-29559.77,-29603.363,-32672.248,-32086.732,-30175.35,-33921.45
66,0.264,306.264,-17381.188,-29598.102,-19241.459,-9165.925,-22242.7,-20368.896,-18275.621,6696.3716,-13112.708,3561.3433,-898.8001,-26299.219,-16516.066,-12010.074,-23609.904,-18090.72,534.54895,-6302.985,-7970.841,-1220.4957,-19976.549,9296.243,-30212.932,1758.9463,-32893.977,-15677.253,-150.18152,9311.275,-979.224,-20762.748,7323.9785,-6510.433,-3083.7744,-25522.791,2938.246,-5113.9136,-952.1655,-3255.8965,-5192.8345,2303.1228,-29295.197,-34458.11,-24681.723,-6953.1406,-1606.8309,-29361.34,-1640.654,-29912.281,-36137.24,-32815.81,-33814.72,-36270.277,-33661.387,-29559.77,-29601.107,-32669.994,-32088.236,-30175.35,-33922.2
67,0.268,306.268,-17381.188,-29601.86,-19245.969,-9165.925,-22243.45,-20365.89,-18278.627,6696.3716,-13111.957,3562.095,-898.0485,-26305.232,-16513.812,-12011.577,-23605.395,-18091.473,535.3006,-6302.985,-7970.841,-1220.4957,-19977.3,9299.249,-30212.932,1761.9528,-32897.734,-15678.005,-149.42989,9311.275,-977.72076,-20763.5,7325.482,-6512.688,-3080.7678,-25523.543,2936.743,-5114.6655,-950.66223,-3255.8965,-5191.331,2302.3713,-29292.941,-34463.37,-24682.473,-6952.3887,-1607.5826,-29359.836,-1642.1573,-29910.025,-36141.75,-32815.81,-33810.96,-36271.78,-33662.89,-29562.023,-29594.344,-32673.0,-32083.727,-30171.592,-33922.2
68,0.272,306.272,-17380.436,-29600.357,-19245.217,-9162.918,-22242.7,-20361.38,-18277.875,6697.875,-13109.702,3563.5981,-893.53876,-26306.736,-16510.805,-12010.074,-23606.898,-18090.72,536.80383,-6300.73,-7969.3374,-1218.2408,-19975.045,9301.504,-30212.932,1765.7109,-32896.234,-15678.005,-148.67827,9313.53,-976.9691,-20761.246,7326.985,-6508.93,-3078.513,-25518.281,2936.743,-5113.9136,-951.4139,-3254.3933,-5190.5796,2304.6262,-29290.688,-34456.605,-24685.48,-6953.892,-1607.5826,-29363.594,-1641.4058,-29909.275,-36139.496,-32818.816,-33814.72,-36274.035,-33671.91,-29562.023,-29597.35,-32676.006,-32088.236,-30175.35,-33925.207
69,0.276,306.276,-17386.45,-29598.854,-19251.23,-9164.422,-22247.959,-20356.871,-18289.15,6696.3716,-13109.702,3559.84,-894.29034,-26307.486,-16508.55,-12016.839,-23592.617,-18099.74,533.79736,-6301.4814,-7972.344,-1216.7375,-19978.053,9305.263,-30215.938,1771.7239,-32902.246,-15678.005,-147.92664,9311.275,-976.2175,-20764.252,7331.4946,-6512.688,-3072.5,-25522.04,2938.246,-5114.6655,-949.159,-3254.3933,-5185.3184,2300.868,-29286.93,-34462.62,-24683.977,-6951.637,-1607.5826,-29356.83,-1644.4122,-29903.262,-36143.254,-32815.06,-33810.207,-36274.79,-33667.4,-29563.527,-29594.344,-32679.014,-32082.223,-30170.84,-33923.703
70,0.28,306.28,-17376.678,-29583.82,-19235.447,-9156.905,-22238.94,-20344.846,-18280.13,6698.6265,-13103.688,3562.8464,-887.52576,-26299.97,-16501.785,-12011.577,-23585.852,-18094.479,536.80383,-6299.2266,-7970.0894,-1210.7245,-19973.543,9309.772,-30208.422,1767.9658,-32902.246,-15675.75,-145.67177,9312.027,-971.70776,-20761.246,7336.0044,-6511.9365,-3064.2322,-25520.535,2938.9978,-5113.9136,-947.65576,-3255.1448,-5181.56,2301.6196,-29280.164,-34461.117,-24683.225,-6951.637,-1609.8375,-29352.32,-1645.9155,-29901.758,-36148.516,-32818.062,-33811.71,-36279.297,-33661.387,-29569.54,-29595.096,-32682.02,-32092.746,-30173.846,-33929.72
71,0.284,306.284,-17384.193,-29598.854,-19244.467,-9159.912,-22244.953,-20353.113,-18287.646,6697.875,-13106.695,3562.095,-889.029,-26302.977,-16504.041,-12016.839,-23596.375,-18100.492,536.80383,-6298.475,-7970.841,-1210.7245,-19977.3,9310.523,-30215.186,1772.4755,-32899.24,-15675.75,-145.67177,9311.275,-970.9561,-20765.004,7336.7563,-6513.44,-3064.2322,-25522.04,2940.501,-5115.417,-946.9041,-3256.6482,-5180.8086,2300.868,-29283.922,-34461.867,-24682.473,-6950.8857,-1609.8375,-29350.816,-1646.6671,-29902.51,-36148.516,-32818.062,-33808.707,-36276.29,-33663.64,-29570.291,-29592.84,-32679.766,-32089.738,-30172.344,-33926.71
72,0.288,306.288,-17389.455,-29604.867,-19258.746,-9161.415,-22250.215,-20351.61,-18295.914,6697.123,-13107.447,3560.5916,-889.78064,-26307.486,-16501.785,-12020.597,-23595.623,-18105.754,536.0522,-6297.723,-7971.5923,-1208.4697,-19979.555,9312.778,-30216.69,1778.4885,-32903.75,-15676.501,-145.67177,9311.275,-969.4529,-20766.506,7338.2593,-6515.6943,-3063.4805,-25525.045,2940.501,-5115.417,-944.64923,-3257.3997,-5179.305,2298.613,-29281.668,-34464.12,-24683.977,-6948.631,-1611.3407,-29349.314,-1648.1704,-29898.0,-36150.02,-32817.312,-33805.7,-36277.043,-33662.89,-29573.299,-29590.586,-32686.53,-32087.484,-30168.586,-33929.72
73,0.292,306.292,-17387.2,-29603.363,-19254.988,-9159.912,-22247.209,-20349.355,-18295.164,6697.875,-13105.943,3560.5916,-888.27734,-26308.238,-16501.785,-12021.349,-23588.86,-18105.754,536.0522,-6297.723,-7971.5923,-1208.4697,-19981.059,9315.785,-30220.447,1782.9983,-32906.004,-15677.253,-145.67177,9311.275,-968.70123,-20767.258,7339.011,-6517.949,-3060.4739,-25532.56,2940.501,-5114.6655,-943.89764,-3258.1514,-5179.305,2297.8616,-29285.426,-34464.875,-24683.977,-6948.631,-1611.3407,-29349.314,-1648.1704,-29897.248,-36149.266,-32819.566,-33806.45,-36277.043,-33665.9,-29571.043,-29591.338,-32688.033,-32087.484,-30171.592,-33927.46
74,0.296,306.296,-17385.697,-29595.848,-19249.727,-9158.408,-22246.457,-20346.348,-18294.412,6698.6265,-13105.192,3560.5916,-887.52576,-26300.723,-16500.283,-12022.101,-23580.592,-18105.754,536.0522,-6296.9717,-7972.344,-1206.2148,-19978.803,9315.785,-30215.938,1784.5015,-32903.75,-15676.501,-144.92014,9310.523,-968.70123,-20765.004,7339.7627,-6514.943,-3059.7224,-25523.543,2940.501,-5115.417,-943.89764,-3256.6482,-5176.299,2298.613,-29280.916,-34461.117,-24686.232,-6948.631,-1612.0924,-29344.053,-1648.1704,-29894.242,-36151.52,-32822.574,-33810.207,-36276.29,-33661.387,-29574.049,-29592.088,-32692.543,-32095.752,-30173.096,-33931.22
75,0.3,306.3,-17386.45,-29593.592,-19248.225,-9157.657,-22247.959,-20344.094,-18294.412,6699.378,-13103.688,3562.095,-886.0225,-26294.709,-16497.275,-12020.597,-23583.598,-18104.25,537.5555,-6296.22,-7970.0894,-1204.7115,-19975.045,9317.288,-30212.18,1786.7563,-32903.75,-15673.495,-143.41689,9312.027,-967.198,-20763.5,7341.266,-6511.185,-3058.219,-25519.783,2941.2527,-5114.6655,-943.146,-3253.6416,-5177.0503,2303.8745,-29278.66,-34458.86,-24686.232,-6948.631,-1610.5891,-29343.3,-1645.9155,-29897.248,-36147.76,-32823.324,-33807.953,-36277.043,-33658.38,-29571.795,-29594.344,-32688.783,-32092.746,-30171.592,-33928.215
76,0.304,306.304,-17383.441,-29594.344,-19247.473,-9157.657,-22247.209,-20347.1,-18296.666,6697.875,-13105.192,3561.3433,-888.27734,-26300.723,-16499.531,-12022.101,-23582.094,-18105.754,536.80383,-6296.9717,-7970.841,-1206.2148,-19975.045,9315.785,-30210.676,1785.2532,-32904.5,-15675.75,-145.67177,9312.778,-967.94965,-20761.246,7340.514,-6510.433,-3058.9707,-25519.783,2941.2527,-5112.4106,-942.39435,-3252.89,-5177.0503,2303.8745,-29280.164,-34459.613,-24684.729,-6947.1274,-1606.8309,-29341.797,-1642.9089,-29892.738,-36144.758,-32818.816,-33805.7,-36271.78,-33658.38,-29568.037,-29590.586,-32684.275,-32089.738,-30169.336,-33926.71
77,0.308,306.308,-17392.46,-29604.867,-19261.754,-9163.67,-22255.477,-20352.361,-18304.184,6694.868,-13109.702,3558.3367,-891.2839,-26311.244,-16503.29,-12028.113,-23589.611,-18112.518,533.79736,-6299.2266,-7973.0957,-1208.4697,-19981.81,9313.53,-30215.938,1782.9983,-32908.258,-15677.253,-146.42339,9312.027,-969.4529,-20766.506,7338.2593,-6514.943,-3061.2256,-25525.797,2942.0042,-5113.9136,-943.146,-3254.3933,-5178.5537,2303.1228,-29282.42,-34458.11,-24681.723,-6947.1274,-1606.0793,-29344.053,-1641.4058,-29895.746,-36141.0,-32816.56,-33804.95,-36269.527,-33664.395,-29563.527,-29592.84,-32679.766,-32087.484,-30170.088,-33924.457
78,0.312,306.312,-17390.959,-29604.867,-19259.498,-9162.167,-22253.973,-20354.615,-18300.424,6696.3716,-13109.702,3559.84,-889.029,-26311.244,-16504.793,-12025.106,-23588.107,-18108.76,535.3006,-6300.73,-7972.344,-1209.2213,-19979.555,9312.027,-30215.186,1779.2401,-32905.254,-15678.756,-146.42339,9312.778,-970.2045,-20766.506,7335.253,-6512.688,-3063.4805,-25523.543,2940.501,-5113.9136,-944.64923,-3252.89,-5180.0566,2303.8745,-29284.674,-34455.1,-24682.473,-6949.3823,-1604.576,-29353.072,-1639.9025,-29900.256,-36137.24,-32818.816,-33806.45,-36268.773,-33665.9,-29561.271,-29596.598,-32676.006,-32087.484,-30174.598,-33920.7
79,0.316,306.316,-17393.965,-29596.598,-19261.002,-9162.918,-22258.482,-20355.367,-18307.19,6694.1167,-13108.95,3556.8335,-890.5322,-26305.984,-16504.793,-12030.368,-23585.102,-18114.021,533.79736,-6299.978,-7973.847,-1207.718,-19982.562,9311.275,-30222.703,1779.9918,-32907.508,-15676.501,-145.67177,9311.275,-970.9561,-20770.266,7336.0044,-6515.6943,-3062.7288,-25525.797,2942.0042,-5113.162,-944.64923,-3254.3933,-5180.0566,2302.3713,-29286.178,-34460.363,-24681.723,-6947.879,-1604.576,-29352.32,-1641.4058,-29898.752,-36142.5,-32819.566,-33806.45,-36270.277,-33665.145,-29564.28,-29595.096,-32681.268,-32090.49,-30173.096,-33924.457
80,0.32,306.32,-17399.227,-29601.86,-19261.754,-9167.428,-22260.738,-20359.877,-18310.195,6690.3584,-13112.708,3553.0754,-894.29034,-26307.486,-16507.799,-12034.126,-23590.361,-18119.283,530.79083,-6302.985,-7977.6055,-1210.7245,-19984.064,9307.518,-30221.2,1774.7303,-32914.273,-15678.756,-148.67827,9308.269,-973.211,-20768.762,7334.5015,-6517.949,-3067.2385,-25527.3,2942.0042,-5112.4106,-946.9041,-3254.3933,-5181.56,2301.6196,-29286.178,-34462.62,-24681.723,-6947.879,-1606.8309,-29350.816,-1642.1573,-29894.994,-36142.5,-32815.06,-33804.195,-36268.023,-33653.87,-29562.775,-29592.84,-32679.014,-32084.479,-30168.586,-33922.2
81,0.324,306.324,-17398.475,-29601.86,-19263.256,-9168.18,-22261.488,-20357.623,-18311.7,6691.862,-13112.708,3553.0754,-892.7871,-26313.5,-16507.799,-12036.381,-23592.617,-18120.035,530.0392,-6302.985,-7978.357,-1211.4762,-19985.568,9307.518,-30224.205,1774.7303,-32914.273,-15679.508,-147.92664,9307.518,-973.96265,-20770.266,7333.7495,-6518.701,-3067.9902,-25531.059,2941.2527,-5113.9136,-946.1525,-3254.3933,-5182.3115,2302.3713,-29286.93,-34458.11,-24681.723,-6948.631,-1606.8309,-29354.574,-1642.9089,-29896.496,-36143.254,-32817.312,-33801.94,-36268.773,-33654.62,-29562.775,-29592.088,-32677.51,-32085.98,-30170.088,-33919.945
82,0.328,306.328,-17403.736,-29616.14,-19273.027,-9168.932,-22265.248,-20364.387,-18318.463,6690.3584,-13114.211,3552.3237,-894.29034,-26319.514,-16509.303,-12038.636,-23600.133,-18122.29,530.0392,-6302.985,-7978.357,-1211.4762,-19990.078,9307.518,-30226.46,1773.9788,-32920.285,-15680.26,-147.17502,9306.766,-973.96265,-20775.525,7333.7495,-6520.956,-3067.2385,-25533.312,2940.501,-5113.9136,-946.1525,-3256.6482,-5183.0635,2297.1099,-29288.432,-34464.875,-24680.219,-6947.879,-1608.3342,-29354.574,-1645.1638,-29895.746,-36147.76,-32815.06,-33801.188,-36268.773,-33653.12,-29562.023,-29592.84,-32678.262,-32086.732,-30167.834,-33923.703
83,0.332,306.332,-17402.232,-29616.893,-19273.027,-9168.932,-22265.998,-20363.635,-18313.953,6690.3584,-13115.715,3550.0688,-893.53876,-26321.768,-16510.805,-12039.388,-23600.885,-18122.29,529.2876,-6303.7363,-7979.8604,-1212.2278,-19993.084,9307.518,-30229.467,1774.7303,-32924.043,-15681.763,-148.67827,9306.766,-973.96265,-20779.285,7332.2466,-6524.714,-3065.7354,-25537.07,2942.0042,-5115.417,-945.4009,-3256.6482,-5180.0566,2300.1165,-29286.178,-34462.62,-24679.467,-6947.1274,-1607.5826,-29353.824,-1644.4122,-29894.242,-36145.508,-32812.8,-33801.188,-36268.023,-33653.12,-29560.52,-29592.84,-32675.256,-32082.975,-30166.33,-33918.44
84,0.336,306.336,-17405.238,-29610.127,-19268.518,-9169.683,-22264.496,-20366.643,-18315.457,6688.1035,-13114.211,3550.8206,-894.29034,-26315.004,-16510.053,-12038.636,-23600.133,-18123.041,528.53595,-6303.7363,-7979.8604,-1212.9794,-19989.326,9305.263,-30228.715,1773.2272,-32920.285,-15678.756,-147.92664,9306.766,-973.211,-20777.781,7331.4946,-6520.956,-3068.7417,-25531.059,2942.0042,-5114.6655,-946.9041,-3254.3933,-5180.0566,2300.868,-29288.432,-34464.12,-24678.715,-6947.879,-1609.0858,-29348.562,-1645.1638,-29896.496,-36144.004,-32815.81,-33801.94,-36268.773,-33654.62,-29562.775,-29593.592,-32680.516,-32082.975,-30168.586,-33918.44
85,0.34,306.34,-17402.984,-29601.86,-19261.002,-9168.18,-22262.24,-20362.133,-18315.457,6688.8555,-13112.708,3550.0688,-892.7871,-26311.996,-16507.047,-12038.636,-23592.617,-18123.793,529.2876,-6302.985,-7980.612,-1210.7245,-19988.574,9307.518,-30230.219,1776.2336,-32919.53,-15678.005,-147.92664,9304.511,-973.211,-20774.775,7333.7495,-6521.7075,-3064.9836,-25532.56,2942.7559,-5113.162,-946.1525,-3254.3933,-5177.0503,2299.3647,-29283.922,-34465.625,-24677.963,-6946.376,-1608.3342,-29345.557,-1645.1638,-29892.738,-36144.758,-32815.06,-33798.934,-36270.277,-33649.36,-29561.271,-29589.082,-32677.51,-32083.727,-30166.33,-33919.945
86,0.344,306.344,-17406.742,-29610.127,-19268.518,-9170.435,-22266.75,-20362.133,-18317.713,6688.1035,-13115.715,3548.5657,-895.042,-26313.5,-16507.047,-12038.636,-23594.871,-18126.047,529.2876,-6302.233,-7981.364,-1212.9794,-19989.326,9307.518,-30231.723,1775.482,-32921.79,-15679.508,-147.92664,9305.263,-973.211,-20774.775,7332.998,-6521.7075,-3066.487,-25534.064,2942.0042,-5114.6655,-945.4009,-3255.1448,-5178.5537,2300.1165,-29286.178,-34464.875,-24678.715,-6945.624,-1608.3342,-29348.562,-1645.1638,-29892.738,-36147.76,-32815.06,-33801.188,-36271.78,-33654.62,-29563.527,-29588.33,-32679.766,-32085.98,-30167.082,-33921.45
87,0.348,306.348,-17405.99,-29616.893,-19270.021,-9172.689,-22267.502,-20368.896,-18319.215,6686.6006,-13117.218,3548.5657,-898.0485,-26321.016,-16511.557,-12040.139,-23608.4,-18125.297,527.78436,-6304.488,-7981.364,-1214.4827,-19993.084,9305.263,-30234.729,1772.4755,-32923.293,-15679.508,-150.18152,9305.263,-973.96265,-20777.781,7330.743,-6522.459,-3068.7417,-25532.56,2939.7493,-5114.6655,-946.1525,-3256.6482,-5180.8086,2299.3647,-29289.936,-34466.38,-24680.219,-6947.879,-1610.5891,-29351.568,-1646.6671,-29894.994,-36150.02,-32818.816,-33802.69,-36273.285,-33661.387,-29565.03,-29589.082,-32684.275,-32088.236,-30169.336,-33916.94
88,0.352,306.352,-17408.246,-29621.402,-19273.027,-9173.441,-22267.502,-20368.145,-18320.719,6686.6006,-13116.466,3547.814,-898.0485,-26322.52,-16514.562,-12040.891,-23608.4,-18126.799,529.2876,-6303.7363,-7982.115,-1214.4827,-19991.582,9305.263,-30234.729,1770.9723,-32924.793,-15682.515,-147.17502,9305.263,-973.96265,-20777.781,7330.743,-6522.459,-3069.4934,-25534.816,2940.501,-5116.1685,-945.4009,-3256.6482,-5183.0635,2297.1099,-29290.688,-34465.625,-24681.723,-6947.879,-1609.0858,-29350.816,-1647.4187,-29896.496,-36153.777,-32817.312,-33804.195,-36274.035,-33661.387,-29567.285,-29590.586,-32688.033,-32089.738,-30170.84,-33918.44
89,0.356,306.356,-17408.246,-29617.645,-19270.021,-9174.192,-22269.006,-20367.395,-18321.47,6687.352,-13116.466,3547.814,-897.2969,-26317.258,-16512.309,-12040.139,-23605.395,-18125.297,527.78436,-6302.985,-7982.115,-1215.2343,-19991.582,9303.759,-30230.219,1769.469,-32925.547,-15680.26,-147.92664,9306.014,-974.71423,-20774.023,7329.2397,-6520.956,-3069.4934,-25534.064,2940.501,-5115.417,-946.9041,-3254.3933,-5183.0635,2298.613,-29288.432,-34465.625,-24683.225,-6948.631,-1609.0858,-29352.32,-1645.9155,-29894.994,-36150.02,-32819.566,-33804.95,-36275.54,-33665.145,-29567.285,-29592.84,-32687.281,-32090.49,-30170.84,-33919.945
90,0.36,306.36,-17408.998,-29613.887,-19270.021,-9173.441,-22268.254,-20366.643,-18319.215,6686.6006,-13114.963,3549.3174,-897.2969,-26309.742,-16513.812,-12040.139,-23607.65,-18125.297,530.0392,-6302.985,-7980.612,-1216.7375,-19989.326,9301.504,-30227.963,1768.7174,-32925.547,-15678.005,-148.67827,9307.518,-976.2175,-20771.768,7329.2397,-6520.204,-3069.4934,-25529.555,2940.501,-5113.9136,-947.65576,-3249.8835,-5181.56,2300.868,-29288.432,-34464.12,-24680.97,-6949.3823,-1608.3342,-29353.824,-1643.6606,-29894.242,-36150.02,-32818.062,-33804.195,-36273.285,-33659.133,-29565.03,-29593.592,-32679.766,-32087.484,-30168.586,-33919.195
91,0.364,306.364,-17408.998,-29618.396,-19270.021,-9173.441,-22269.758,-20368.896,-18319.967,6685.8486,-13118.721,3548.5657,-901.055,-26315.754,-16516.818,-12038.636,-23611.408,-18122.29,529.2876,-6305.2397,-7979.8604,-1220.4957,-19987.822,9300.001,-30226.46,1767.2141,-32924.793,-15678.756,-149.42989,9307.518,-978.4724,-20769.514,7326.2334,-6520.204,-3073.2515,-25529.555,2938.9978,-5113.162,-949.159,-3250.635,-5184.5664,2299.3647,-29290.688,-34462.62,-24681.723,-6951.637,-1605.3278,-29354.574,-1642.9089,-29894.242,-36150.02,-32820.32,-33807.203,-36274.79,-33664.395,-29563.527,-29597.35,-32679.766,-32091.994,-30173.096,-33922.2
92,0.368,306.368,-17408.998,-29622.154,-19274.531,-9174.944,-22268.254,-20370.4,-18319.967,6688.1035,-13119.473,3548.5657,-900.30334,-26320.264,-16517.57,-12037.884,-23612.91,-18124.545,530.0392,-6305.2397,-7979.8604,-1218.9924,-19990.078,9300.753,-30226.46,1768.7174,-32927.8,-15679.508,-149.42989,9307.518,-976.9691,-20772.52,7326.985,-6520.956,-3070.9966,-25531.81,2939.7493,-5113.162,-948.4074,-3251.3867,-5184.5664,2300.1165,-29294.445,-34461.117,-24680.97,-6950.8857,-1606.0793,-29351.568,-1641.4058,-29893.49,-36149.266,-32815.81,-33805.7,-36271.78,-33663.64,-29559.018,-29590.586,-32674.504,-32083.727,-30168.586,-33918.44
93,0.372,306.372,-17402.984,-29619.146,-19268.518,-9171.187,-22265.998,-20365.89,-18315.457,6688.8555,-13117.97,3551.5723,-896.5452,-26315.754,-16514.562,-12034.126,-23608.4,-18119.283,530.79083,-6303.7363,-7976.854,-1217.4891,-19987.822,9303.759,-30224.205,1770.2207,-32921.79,-15679.508,-148.67827,9309.772,-976.9691,-20771.016,7328.4883,-6517.1978,-3070.245,-25528.803,2938.9978,-5113.162,-947.65576,-3251.3867,-5185.3184,2301.6196,-29291.44,-34459.613,-24682.473,-6951.637,-1606.0793,-29354.574,-1641.4058,-29894.994,-36147.76,-32818.816,-33808.707,-36274.79,-33665.9,-29560.52,-29595.096,-32677.51,-32091.994,-30175.35,-33922.953
94,0.376,306.376,-17408.998,-29617.645,-19270.021,-9174.192,-22269.758,-20368.145,-18321.47,6686.6006,-13118.721,3548.5657,-898.8001,-26314.252,-16516.818,-12037.884,-23608.4,-18125.297,529.2876,-6304.488,-7980.612,-1216.7375,-19989.326,9301.504,-30224.957,1768.7174,-32927.8,-15679.508,-148.67827,9307.518,-976.9691,-20771.768,7329.2397,-6522.459,-3070.245,-25537.07,2939.7493,-5116.1685,-947.65576,-3252.1384,-5180.8086,2297.1099,-29286.178,-34464.12,-24684.729,-6950.134,-1609.8375,-29349.314,-1645.1638,-29887.477,-36150.77,-32821.07,-33805.7,-36277.793,-33661.387,-29562.775,-29587.578,-32682.02,-32092.746,-30172.344,-33922.953
95,0.38,306.38,-17407.494,-29609.377,-19267.766,-9171.187,-22265.248,-20362.885,-18321.47,6690.3584,-13115.715,3551.5723,-896.5452,-26310.494,-16513.812,-12037.133,-23603.14,-18123.793,533.0457,-6301.4814,-7978.357,-1214.4827,-19984.816,9303.759,-30224.205,1770.9723,-32925.547,-15674.998,-145.67177,9309.0205,-975.4659,-20769.514,7330.743,-6519.4526,-3067.9902,-25530.307,2940.501,-5115.417,-946.9041,-3251.3867,-5180.8086,2299.3647,-29286.178,-34462.62,-24683.977,-6950.134,-1609.8375,-29348.562,-1645.1638,-29890.484,-36150.02,-32821.82,-33803.445,-36276.29,-33659.133,-29562.023,-29591.338,-32680.516,-32086.732,-30169.336,-33920.7
96,0.384,306.384,-17405.238,-29610.879,-19267.766,-9169.683,-22264.496,-20365.139,-18317.713,6691.862,-13113.46,3554.5786,-893.53876,-26311.996,-16513.06,-12031.871,-23603.89,-18124.545,533.79736,-6299.2266,-7975.3506,-1212.9794,-19983.312,9304.511,-30223.453,1769.469,-32924.043,-15673.495,-144.92014,9309.772,-973.96265,-20768.762,7330.743,-6518.701,-3070.245,-25530.307,2939.7493,-5114.6655,-948.4074,-3252.1384,-5183.0635,2297.1099,-29288.432,-34462.62,-24684.729,-6952.3887,-1611.3407,-29350.816,-1647.4187,-29898.0,-36153.777,-32824.83,-33807.953,-36279.297,-33665.9,-29564.28,-29595.848,-32688.033,-32089.738,-30176.102,-33924.457
97,0.388,306.388,-17407.494,-29619.898,-19274.531,-9171.187,-22265.998,-20365.89,-18335.752,6691.862,-13115.715,3553.8271,-894.29034,-26315.004,-16514.562,-12021.349,-23607.65,-18128.303,533.79736,-6299.978,-7975.3506,-1212.9794,-19984.816,9306.014,-30222.703,1770.2207,-32925.547,-15674.998,-145.67177,9309.0205,-973.211,-20772.52,7332.2466,-6520.956,-3067.9902,-25535.568,2939.7493,-5116.9204,-946.1525,-3254.3933,-5182.3115,2294.855,-29289.184,-34464.875,-24685.48,-6951.637,-1613.5956,-29352.32,-1651.1769,-29894.994,-36156.78,-32826.332,-33808.707,-36279.297,-33666.65,-29567.285,-29593.592,-32689.535,-32093.498,-30175.35,-33928.215
98,0.392,306.392,-17408.246,-29619.146,-19274.531,-9171.9375,-22266.75,-20365.89,-18320.719,6691.1104,-13114.211,3551.5723,-896.5452,-26323.271,-16517.57,-12043.1455,-23609.152,-18129.807,533.79736,-6298.475,-7977.6055,-1212.9794,-19991.582,9305.263,-30231.723,1770.2207,-32924.793,-15675.75,-144.16852,9309.0205,-973.211,-20774.023,7331.4946,-6526.9688,-3069.4934,-25539.326,2941.2527,-5116.9204,-946.1525,-3255.1448,-5183.0635,2292.6,-29288.432,-34464.12,-24686.232,-6950.8857,-1615.0989,-29352.32,-1651.1769,-29894.242,-36156.03,-32826.332,-33809.457,-36278.547,-33667.4,-29567.285,-29592.84,-32691.04,-32092.746,-30173.096,-33923.703
99,0.396,306.396,-17408.246,-29614.637,-19267.766,-9168.18,-22267.502,-20364.387,-18321.47,6693.365,-13112.708,3553.8271,-892.7871,-26315.754,-16513.812,-12040.891,-23603.14,-18125.297,536.0522,-6296.9717,-7975.3506,-1210.7245,-19985.568,9305.263,-30223.453,1768.7174,-32929.305,-15674.246,-142.66527,9310.523,-972.4594,-20768.762,7332.2466,-6521.7075,-3071.7483,-25532.56,2940.501,-5114.6655,-946.1525,-3252.89,-5182.3115,2297.1099,-29288.432,-34459.613,-24685.48,-6951.637,-1613.5956,-29349.314,-1648.922,-29894.242,-36153.777,-32827.082,-33811.71,-36278.547,-33668.902,-29565.781,-29594.344,-32693.293,-32097.256,-30176.854,-33922.953
100,0.4,306.4,-17408.246,-29612.383,-19265.512,-9167.428,-22265.248,-20365.89,-18319.967,6694.1167,-13111.205,3553.8271,-892.0355,-26313.5,-16514.562,-12040.891,-23603.89,-18126.799,535.3006,-6296.22,-7976.102,-1211.4762,-19989.326,9304.511,-30227.963,1771.7239,-32937.57,-15672.743,-143.41689,9308.269,-972.4594,-20770.266,7332.2466,-6524.714,-3069.4934,-25535.568,2940.501,-5116.1685,-946.1525,-3253.6416,-5180.8086,2293.3518,-29286.178,-34470.137,-24686.232,-6952.3887,-1615.8505,-29348.562,-1651.9285,-29891.986,-36158.285,-32827.836,-33812.465,-36280.8,-33663.64,-29566.533,-29595.848,-32695.549,-32097.256,-30176.854,-33922.953
101,0.404,306.404,-17408.998,-29616.893,-19272.275,-9169.683,-22267.502,-20367.395,-18326.732,6692.6133,-13111.957,3552.3237,-892.7871,-26322.52,-16514.562,-12041.643,-23607.65,-18130.557,534.54895,-6296.22,-7976.854,-1211.4762,-19990.078,9304.511,-30224.957,1765.7109,-32936.07,-15673.495,-142.66527,9307.518,-972.4594,-20773.271,7332.2466,-6526.9688,-3064.2322,-25550.6,2942.0042,-5116.9204,-945.4009,-3255.8965,-5180.8086,2288.842,-29289.936,-34466.38,-24684.729,-6951.637,-1616.602,-29348.562,-1653.4318,-29891.236,-36163.547,-32824.08,-33810.207,-36277.043,-33658.38,-29566.533,-29589.834,-32694.045,-32090.49,-30170.84,-33914.684
102,0.408,306.408,-17408.246,-29626.664,-19273.027,-9171.187,-22269.006,-20368.145,-18325.229,6693.365,-13112.708,3552.3237,-893.53876,-26327.781,-16514.562,-12043.1455,-23612.16,-18129.055,535.3006,-6297.723,-7977.6055,-1214.4827,-19991.582,9303.008,-30228.715,1759.6979,-32934.566,-15675.75,-143.41689,9309.0205,-973.96265,-20773.271,7328.4883,-6523.9624,-3077.7612,-25537.07,2941.2527,-5117.672,-947.65576,-3255.1448,-5182.3115,2293.3518,-29291.44,-34461.867,-24685.48,-6953.1406,-1615.0989,-29352.32,-1648.922,-29894.242,-36153.777,-32824.83,-33810.96,-36279.297,-33668.152,-29564.28,-29592.088,-32691.791,-32095.752,-30173.096,-33914.684
103,0.412,306.412,-17405.99,-29625.16,-19270.021,-9170.435,-22268.254,-20364.387,-18322.973,6694.1167,-13112.708,3555.3303,-893.53876,-26324.023,-16513.06,-12038.636,-23612.16,-18126.047,537.5555,-6297.723,-7975.3506,-1213.7311,-19989.326,9303.759,-30224.957,1767.9658,-32928.55,-15674.998,-143.41689,9309.772,-973.96265,-20771.768,7328.4883,-6523.211,-3071.7483,-25534.816,2940.501,-5116.9204,-948.4074,-3254.3933,-5186.8213,2294.855,-29295.197,-34463.37,-24686.982,-6955.395,-1614.3472,-29353.824,-1649.6736,-29901.006,-36153.023,-32829.34,-33813.97,-36280.05,-33677.92,-29564.28,-29601.86,-32691.791,-32099.51,-30183.617,-33919.945
104,0.416,306.416,-17405.99,-29617.645,-19265.512,-9169.683,-22265.248,-20367.395,-18319.215,6694.868,-13111.205,3556.0818,-892.7871,-26316.506,-16512.309,-12035.629,-23608.4,-18123.041,536.80383,-6296.9717,-7975.3506,-1211.4762,-19987.822,9304.511,-30225.709,1769.469,-32931.56,-15674.246,-143.41689,9308.269,-973.211,-20771.768,7329.2397,-6522.459,-3070.245,-25537.07,2942.0042,-5118.4233,-946.9041,-3254.3933,-5183.815,2294.1033,-29292.941,-34466.38,-24686.982,-6954.6436,-1615.0989,-29349.314,-1650.4253,-29898.752,-36156.78,-32826.332,-33811.71,-36279.297,-33671.156,-29565.781,-29600.357,-32693.293,-32097.256,-30180.611,-33921.45
105,0.42,306.42,-17402.984,-29611.63,-19259.498,-9165.925,-22262.992,-20363.635,-18317.713,6696.3716,-13108.95,3556.8335,-889.78064,-26312.748,-16508.55,-12033.374,-23601.637,-18122.29,539.0587,-6294.717,-7973.0957,-1209.9729,-19984.816,9306.014,-30218.943,1772.4755,-32930.055,-15672.743,-141.16202,9309.0205,-972.4594,-20770.266,7331.4946,-6520.956,-3069.4934,-25534.064,2943.5073,-5117.672,-946.9041,-3253.6416,-5183.0635,2291.8484,-29289.936,-34469.383,-24686.232,-6954.6436,-1616.602,-29348.562,-1651.1769,-29899.504,-36159.79,-32827.836,-33812.465,-36281.55,-33668.902,-29566.533,-29597.35,-32695.549,-32095.0,-30179.107,-33921.45
106,0.424,306.424,-17405.238,-29615.389,-19257.994,-9165.925,-22260.738,-20364.387,-18316.209,6697.123,-13108.198,3559.0884,-889.029,-26311.244,-16509.303,-12031.871,-23603.14,-18121.537,539.81036,-6294.717,-7973.0957,-1210.7245,-19986.32,9306.766,-30219.695,1772.4755,-32931.56,-15674.246,-141.91364,9309.772,-971.70776,-20771.768,7330.743,-6523.9624,-3070.245,-25538.574,2940.501,-5119.1753,-947.65576,-3254.3933,-5183.0635,2292.6,-29289.936,-34467.88,-24689.99,-6955.395,-1618.1053,-29351.568,-1651.9285,-29898.0,-36153.777,-32827.836,-33814.72,-36280.8,-33672.66,-29566.533,-29596.598,-32697.053,-32095.752,-30179.107,-33919.195
107,0.428,306.428,-17402.232,-29617.645,-19260.25,-9165.925,-22259.234,-20360.629,-18314.705,6699.378,-13108.198,3559.0884,-889.029,-26312.748,-16507.799,-12028.865,-23603.89,-18119.283,539.0587,-6294.717,-7972.344,-1209.2213,-19986.32,9310.523,-30217.441,1776.9852,-32930.055,-15674.246,-141.91364,9310.523,-970.2045,-20771.768,7333.7495,-6521.7075,-3066.487,-25533.312,2941.2527,-5119.1753,-946.1525,-3254.3933,-5180.8086,2294.1033,-29289.184,-34468.633,-24688.486,-6953.1406,-1618.1053,-29352.32,-1653.4318,-29895.746,-36150.77,-32827.082,-33813.97,-36283.81,-33674.164,-29569.54,-29592.84,-32703.816,-32096.504,-30177.605,-33920.7
108,0.432,306.432,-17404.488,-29616.893,-19264.76,-9165.173,-22260.738,-20363.635,-18316.96,6698.6265,-13107.447,3558.3367,-889.029,-26318.762,-16508.55,-12030.368,-23606.898,-18123.041,539.81036,-6294.717,-7971.5923,-1209.2213,-19986.32,9310.523,-30219.695,1774.7303,-32930.81,-15675.75,-141.91364,9310.523,-968.70123,-20771.016,7335.253,-6520.956,-3063.4805,-25532.56,2942.7559,-5117.672,-944.64923,-3253.6416,-5177.802,2294.1033,-29284.674,-34467.88,-24686.232,-6951.637,-1615.0989,-29349.314,-1651.1769,-29891.986,-36148.516,-32824.08,-33812.465,-36280.05,-33671.91,-29565.781,-29590.586,-32700.81,-32091.994,-30176.854,-33916.94
109,0.436,306.436,-17405.238,-29617.645,-19258.746,-9165.925,-22260.738,-20365.139,-18314.705,6697.875,-13108.198,3557.5852,-890.5322,-26311.996,-16510.053,-12031.12,-23606.146,-18121.537,539.0587,-6296.22,-7972.344,-1209.2213,-19982.562,9309.0205,-30215.938,1773.9788,-32930.055,-15673.495,-142.66527,9312.027,-970.2045,-20768.01,7334.5015,-6515.6943,-3064.2322,-25511.516,2942.7559,-5116.1685,-945.4009,-3250.635,-5180.0566,2297.1099,-29283.922,-34467.13,-24686.232,-6953.1406,-1614.3472,-29350.066,-1650.4253,-29894.242,-36147.01,-32824.83,-33812.465,-36281.55,-33668.152,-29568.037,-29593.592,-32700.059,-32095.0,-30178.355,-33919.945
110,0.44,306.44,-17427.037,-29628.918,-19279.041,-9177.199,-22275.018,-20380.924,-18335.0,6689.607,-13115.715,3549.3174,-898.8001,-26317.258,-16519.072,-12043.897,-23615.918,-18135.066,533.79736,-6300.73,-7978.357,-1215.2343,-19991.582,9301.504,-30227.213,1764.2076,-32939.074,-15674.998,-144.92014,9307.518,-973.96265,-20770.266,7329.2397,-6526.9688,-3070.245,-25547.594,2940.501,-5116.1685,-947.65576,-3251.3867,-5180.8086,2291.8484,-29286.178,-34470.137,-24685.48,-6951.637,-1613.5956,-29352.32,-1651.1769,-29894.242,-36146.258,-32823.324,-33810.96,-36283.055,-33665.9,-29568.79,-29593.592,-32697.803,-32088.236,-30176.854,-33917.69
111,0.444,306.444,-17435.305,-29643.951,-19295.576,-9182.461,-22281.783,-20386.936,-18347.025,6685.8486,-13119.473,3546.3108,-902.5582,-26327.781,-16522.832,-12048.407,-23623.434,-18143.336,532.29407,-6302.233,-7980.612,-1216.7375,-19993.836,9300.001,-30233.225,1762.7043,-32945.84,-15675.75,-144.92014,9306.766,-974.71423,-20775.525,7326.985,-6529.9756,-3071.7483,-25547.594,2942.0042,-5116.1685,-946.9041,-3252.89,-5180.8086,2291.8484,-29286.178,-34470.887,-24684.729,-6951.637,-1615.0989,-29351.568,-1651.1769,-29891.236,-36150.02,-32822.574,-33807.953,-36280.05,-33665.9,-29568.037,-29591.338,-32697.053,-32085.98,-30174.598,-33916.188
112,0.448,306.448,-17418.768,-29633.428,-19274.531,-9173.441,-22266.75,-20371.904,-18326.732,6691.862,-13115.715,3551.5723,-898.8001,-26328.533,-16516.066,-12039.388,-23609.904,-18128.303,534.54895,-6299.978,-7976.102,-1214.4827,-19990.078,9305.263,-30227.213,1770.2207,-32938.324,-15676.501,-144.92014,9309.772,-973.96265,-20773.271,7329.9917,-6523.9624,-3065.7354,-25540.83,2942.0042,-5113.9136,-947.65576,-3249.1318,-5181.56,2297.1099,-29286.93,-34464.875,-24683.977,-6952.3887,-1612.0924,-29350.816,-1648.1704,-29894.242,-36150.02,-32824.08,-33809.457,-36279.297,-33667.4,-29565.03,-29592.84,-32697.803,-32087.484,-30179.107,-33913.934
113,0.452,306.452,-17406.742,-29624.408,-19258.746,-9168.18,-22262.24,-20364.387,-18314.705,6694.1167,-13112.708,3555.3303,-895.042,-26323.271,-16510.053,-12030.368,-23600.885,-18118.531,535.3006,-6299.2266,-7973.847,-1213.7311,-19986.32,9308.269,-30221.2,1774.7303,-32933.812,-15675.75,-144.16852,9310.523,-972.4594,-20771.016,7332.2466,-6520.956,-3064.2322,-25539.326,2941.2527,-5113.162,-946.1525,-3248.3801,-5180.8086,2299.3647,-29289.936,-34462.62,-24683.225,-6950.8857,-1610.5891,-29354.574,-1646.6671,-29891.236,-36147.76,-32822.574,-33807.953,-36277.043,-33665.145,-29563.527,-29592.84,-32696.3,-32085.229,-30179.107,-33905.664
114,0.456,306.456,-17409.748,-29619.146,-19265.512,-9166.677,-22266.75,-20358.375,-18322.973,6693.365,-13111.205,3553.0754,-892.7871,-26319.514,-16507.799,-12035.629,-23594.871,-18124.545,535.3006,-6298.475,-7975.3506,-1210.7245,-19988.574,9310.523,-30221.951,1777.7369,-32934.566,-15674.998,-144.16852,9309.772,-971.70776,-20772.52,7334.5015,-6522.459,-3061.9773,-25539.326,2941.2527,-5114.6655,-945.4009,-3249.1318,-5179.305,2298.613,-29286.93,-34464.875,-24685.48,-6953.1406,-1612.0924,-29353.072,-1649.6736,-29891.236,-36152.273,-32826.332,-33812.465,-36279.297,-33668.152,-29568.037,-29597.35,-32700.059,-32092.746,-30182.115,-33913.18
115,0.46,306.46,-17411.252,-29619.898,-19260.25,-9168.932,-22267.502,-20359.877,-18324.477,6691.862,-13110.453,3550.8206,-892.7871,-26318.01,-16508.55,-12039.388,-23596.375,-18125.297,535.3006,-6298.475,-7976.854,-1210.7245,-19991.582,9309.0205,-30227.963,1776.9852,-32937.57,-15673.495,-144.16852,9309.772,-972.4594,-20771.016,7334.5015,-6523.9624,-3062.7288,-25545.34,2942.0042,-5113.9136,-946.1525,-3248.3801,-5178.5537,2297.1099,-29286.93,-34464.875,-24684.729,-6953.892,-1612.0924,-29350.066,-1649.6736,-29889.732,-36153.777,-32825.58,-33810.96,-36280.05,-33667.4,-29568.037,-29598.102,-32694.797,-32094.248,-30182.115,-33915.438
116,0.464,306.464,-17419.52,-29629.67,-19272.275,-9174.192,-22273.516,-20363.635,-18331.992,6689.607,-13114.211,3548.5657,-895.042,-26324.023,-16510.805,-12042.394,-23597.879,-18130.557,533.79736,-6300.73,-7978.357,-1211.4762,-19991.582,9309.0205,-30227.213,1774.7303,-32940.58,-15673.495,-144.16852,9309.0205,-971.70776,-20773.271,7333.7495,-6524.714,-3064.2322,-25538.574,2942.7559,-5114.6655,-945.4009,-3249.1318,-5177.0503,2297.1099,-29286.93,-34464.875,-24684.729,-6951.637,-1612.844,-29347.059,-1649.6736,-29887.477,-36154.527,-32824.83,-33810.96,-36279.297,-33670.406,-29568.79,-29594.344,-32694.045,-32093.498,-30179.107,-33913.934
117,0.468,306.468,-17409.748,-29626.664,-19267.014,-9168.18,-22269.758,-20356.871,-18325.229,6691.1104,-13113.46,3550.8206,-891.2839,-26326.277,-16507.799,-12040.139,-23591.865,-18124.545,535.3006,-6299.2266,-7977.6055,-1211.4762,-19990.078,9312.778,-30225.709,1778.4885,-32938.324,-15674.998,-143.41689,9309.0205,-969.4529,-20773.271,7336.0044,-6523.211,-3060.4739,-25537.822,2943.5073,-5113.9136,-944.64923,-3251.3867,-5178.5537,2297.8616,-29288.432,-34463.37,-24686.232,-6950.8857,-1612.0924,-29352.32,-1649.6736,-29889.732,-36151.52,-32824.08,-33810.207,-36279.297,-33670.406,-29567.285,-29594.344,-32691.04,-32095.0,-30179.86,-33913.18
118,0.472,306.472,-17405.99,-29626.664,-19260.25,-9165.925,-22265.998,-20358.375,-18322.223,6691.862,-13111.957,3550.8206,-890.5322,-26327.03,-16506.295,-12036.381,-23594.871,-18123.793,534.54895,-6299.2266,-7977.6055,-1211.4762,-19990.078,9312.778,-30227.213,1779.9918,-32939.83,-15674.998,-143.41689,9308.269,-970.2045,-20776.277,7337.508,-6525.466,-3059.7224,-25542.332,2942.7559,-5116.1685,-943.146,-3252.89,-5177.0503,2295.6067,-29287.68,-34464.12,-24685.48,-6950.134,-1615.0989,-29352.32,-1652.68,-29886.727,-36156.03,-32824.08,-33810.207,-36281.55,-33671.156,-29570.291,-29591.338,-32696.3,-32093.498,-30177.605,-33916.94
119,0.476,306.476,-17417.266,-29626.664,-19270.773,-9169.683,-22272.764,-20363.635,-18334.248,6689.607,-13114.963,3549.3174,-892.7871,-26324.773,-16510.053,-12041.643,-23591.113,-18132.812,532.29407,-6299.978,-7979.8604,-1212.2278,-19992.332,9310.523,-30221.951,1776.2336,-32948.848,-15674.998,-143.41689,9306.766,-970.9561,-20774.023,7334.5015,-6528.472,-3064.2322,-25543.836,2942.0042,-5115.417,-944.64923,-3252.89,-5178.5537,2293.3518,-29297.451,-34469.383,-24686.982,-6952.3887,-1617.3538,-29352.32,-1656.4382,-29892.738,-36162.043,-32826.332,-33812.465,-36283.055,-33668.902,-29573.299,-29596.598,-32700.059,-32098.758,-30181.363,-33918.44
120,0.48,306.48,-17412.756,-29620.65,-19266.264,-9165.925,-22271.26,-20359.125,-18331.992,6691.862,-13109.702,3549.3174,-889.78064,-26321.016,-16506.295,-12039.388,-23589.611,-18129.807,533.79736,-6298.475,-7979.109,-1209.2213,-19990.078,9313.53,-30227.963,1780.7434,-32936.07,-15673.495,-142.66527,9307.518,-968.70123,-20772.52,7337.508,-6525.466,-3059.7224,-25541.58,2944.259,-5116.1685,-943.146,-3250.635,-5173.292,2294.1033,-29286.178,-34467.88,-24686.232,-6950.134,-1616.602,-29344.805,-1655.6866,-29887.477,-36162.043,-32825.58,-33810.96,-36283.055,-33661.387,-29573.299,-29593.592,-32695.549,-32098.008,-30178.355,-33916.94
121,0.484,306.484,-17413.508,-29622.906,-19268.518,-9166.677,-22271.26,-20355.367,-18335.0,6692.6133,-13109.702,3550.0688,-888.27734,-26325.525,-16504.041,-12042.394,-23586.604,-18133.564,533.79736,-6296.9717,-7978.357,-1207.718,-19990.078,9315.785,-30227.963,1784.5015,-32943.586,-15672.743,-141.91364,9307.518,-967.198,-20774.775,7340.514,-6527.7207,-3055.964,-25542.332,2943.5073,-5116.9204,-942.39435,-3253.6416,-5170.2856,2290.3452,-29285.426,-34473.14,-24686.982,-6947.879,-1619.6086,-29343.3,-1660.1964,-29885.223,-36168.81,-32824.83,-33810.207,-36289.07,-33658.38,-29578.559,-29588.33,-32706.072,-32100.262,-30175.35,-33922.2
122,0.488,306.488,-17407.494,-29622.906,-19266.264,-9164.422,-22265.998,-20354.615,-18328.986,6695.62,-13108.198,3553.8271,-886.7741,-26324.773,-16501.033,-12038.636,-23585.852,-18127.55,536.0522,-6296.22,-7976.854,-1206.2148,-19988.574,9318.792,-30224.957,1786.7563,-32940.58,-15672.743,-141.91364,9309.0205,-967.198,-20773.271,7339.7627,-6526.2173,-3054.461,-25539.326,2942.7559,-5114.6655,-942.39435,-3253.6416,-5171.789,2291.8484,-29288.432,-34469.383,-24689.238,-6951.637,-1619.6086,-29347.81,-1657.9415,-29892.738,-36162.797,-32828.586,-33814.72,-36289.07,-33668.152,-29577.057,-29598.854,-32703.816,-32108.53,-30185.873,-33923.703
123,0.492,306.492,-17409.748,-29626.664,-19267.766,-9165.173,-22265.998,-20359.125,-18333.496,6694.868,-13108.95,3553.8271,-887.52576,-26325.525,-16504.041,-12035.629,-23583.598,-18132.812,536.80383,-6296.9717,-7976.102,-1206.2148,-19988.574,9318.04,-30224.205,1786.0048,-32941.332,-15671.991,-141.16202,9309.772,-965.69476,-20774.775,7342.0176,-6527.7207,-3052.9578,-25541.58,2944.259,-5115.417,-940.1395,-3252.89,-5170.2856,2291.8484,-29286.93,-34470.887,-24687.734,-6947.879,-1616.602,-29346.307,-1656.4382,-29887.477,-36162.043,-32824.08,-33810.96,-36287.566,-33665.9,-29576.305,-29591.338,-32699.307,-32101.766,-30181.363,-33916.94
124,0.496,306.496,-17410.5,-29621.402,-19265.512,-9165.173,-22265.998,-20355.367,-18350.031,6696.3716,-13108.198,3553.8271,-887.52576,-26315.004,-16504.041,-12024.355,-23583.598,-18131.309,537.5555,-6296.22,-7973.847,-1206.9664,-19982.562,9315.785,-30216.69,1785.2532,-32935.316,-15671.24,-142.66527,9311.275,-966.4464,-20768.01,7339.011,-6522.459,-3055.2126,-25534.816,2942.7559,-5116.1685,-942.39435,-3249.1318,-5170.2856,2295.6067,-29286.178,-34461.867,-24687.734,-6950.134,-1615.0989,-29346.307,-1653.4318,-29885.223,-36153.777,-32826.332,-33813.215,-36283.81,-33667.4,-29572.547,-29593.592,-32696.3,-32104.02,-30182.115,-33914.684
125,0.5,306.5,-17405.99,-29613.887,-19259.498,-9161.415,-22263.744,-20353.865,-18328.986,6697.875,-13105.943,3555.3303,-885.2709,-26312.748,-16500.283,-12039.388,-23580.592,-18129.055,538.30707,-6294.717,-7974.599,-1205.4631,-19983.312,9316.537,-30224.205,1785.2532,-32951.85,-15671.24,-142.66527,9309.772,-965.69476,-20773.271,7339.7627,-6527.7207,-3055.964,-25538.574,2943.5073,-5117.672,-942.39435,-3251.3867,-5171.037,2291.097,-29286.93,-34467.88,-24687.734,-6951.637,-1618.1053,-29345.557,-1655.6866,-29884.47,-36159.04,-32830.09,-33813.215,-36284.56,-33660.637,-29574.8,-29594.344,-32697.053,-32107.025,-30184.37,-33916.94
126,0.504,306.504,-17412.004,-29618.396,-19257.994,-9164.422,-22262.24,-20356.12,-18324.477,6694.868,-13108.198,3553.0754,-886.7741,-26319.514,-16503.29,-12037.133,-23586.604,-18125.297,536.0522,-6296.22,-7976.102,-1208.4697,-19984.064,9315.033,-30221.2,1780.7434,-32945.09,-15671.991,-143.41689,9309.0205,-967.198,-20774.023,7340.514,-6524.714,-3055.964,-25535.568,2944.259,-5116.1685,-941.64276,-3249.8835,-5170.2856,2294.1033,-29284.674,-34462.62,-24686.982,-6950.134,-1615.8505,-29346.307,-1651.9285,-29882.217,-36153.777,-32827.836,-33811.71,-36280.05,-33659.883,-29572.547,-29591.338,-32694.797,-32105.523,-30183.617,-33913.934
127,0.508,306.508,-17412.004,-29624.408,-19264.76,-9165.173,-22265.248,-20359.125,-18325.229,6694.1167,-13111.205,3553.0754,-889.029,-26324.023,-16505.543,-12037.884,-23588.86,-18124.545,534.54895,-6297.723,-7976.854,-1209.2213,-19986.32,9315.033,-30224.205,1773.9788,-32940.58,-15674.246,-143.41689,9308.269,-967.198,-20775.525,7339.7627,-6522.459,-3052.9578,-25536.32,2942.7559,-5115.417,-941.64276,-3251.3867,-5172.5405,2295.6067,-29286.93,-34461.867,-24686.232,-6949.3823,-1612.844,-29350.066,-1648.1704,-29882.967,-36148.516,-32824.83,-33810.96,-36277.043,-33660.637,-29566.533,-29592.84,-32687.281,-32104.771,-30182.115,-33910.176
128,0.512,306.512,-17412.004,-29628.166,-19267.014,-9167.428,-22268.254,-20362.133,-18327.482,6693.365,-13113.46,3551.5723,-890.5322,-26324.773,-16506.295,-12037.884,-23591.113,-18124.545,533.79736,-6298.475,-7977.6055,-1209.2213,-19988.574,9315.033,-30226.46,1782.2467,-32946.59,-15674.998,-144.92014,9308.269,-967.198,-20776.277,7339.011,-6523.9624,-3054.461,-25549.098,2942.7559,-5115.417,-942.39435,-3248.3801,-5171.037,2298.613,-29285.426,-34451.344,-24686.232,-6949.3823,-1612.0924,-29348.562,-1647.4187,-29885.223,-36149.266,-32827.082,-33810.96,-36277.793,-33660.637,-29565.781,-29592.088,-32683.523,-32101.766,-30183.617,-33910.176
129,0.516,306.516,-17404.488,-29616.14,-19254.988,-9162.167,-22263.744,-20352.361,-18321.47,6695.62,-13109.702,3553.0754,-887.52576,-26317.258,-16502.537,-12035.629,-23580.592,-18120.035,534.54895,-6297.723,-7976.854,-1206.9664,-19986.32,9317.288,-30224.957,1789.0112,-32936.07,-15675.75,-144.16852,9309.772,-967.94965,-20772.52,7341.266,-6519.4526,-3052.206,-25529.555,2942.7559,-5113.9136,-942.39435,-3245.3738,-5170.2856,2302.3713,-29284.674,-34454.35,-24685.48,-6950.134,-1610.5891,-29347.81,-1642.9089,-29881.465,-36142.5,-32825.58,-33810.207,-36277.043,-33656.88,-29564.28,-29589.082,-32678.262,-32099.51,-30182.865,-33907.168
130,0.52,306.52,-17405.99,-29616.14,-19257.244,-9161.415,-22264.496,-20353.865,-18324.477,6694.868,-13109.702,3552.3237,-886.7741,-26313.5,-16501.785,-12037.133,-23582.094,-18123.041,534.54895,-6299.978,-7976.854,-1207.718,-19984.816,9315.033,-30218.943,1784.5015,-32929.305,-15672.743,-144.92014,9309.772,-968.70123,-20768.01,7339.011,-6517.949,-3055.964,-25530.307,2943.5073,-5110.907,-943.146,-3243.119,-5170.2856,2303.8745,-29280.916,-34454.35,-24684.729,-6950.134,-1608.3342,-29344.053,-1640.654,-29880.713,-36137.24,-32824.08,-33810.207,-36271.03,-33653.12,-29564.28,-29589.082,-32675.256,-32097.256,-30180.611,-33908.67
131,0.524,306.524,-17409.748,-29620.65,-19264.008,-9162.918,-22268.254,-20354.615,-18329.738,6691.862,-13110.453,3548.5657,-887.52576,-26318.01,-16501.785,-12041.643,-23580.592,-18127.55,531.5425,-6300.73,-7979.109,-1208.4697,-19990.078,9316.537,-30225.709,1783.7499,-32932.312,-15675.75,-145.67177,9309.772,-969.4529,-20768.762,7339.011,-6520.204,-3054.461,-25534.064,2942.7559,-5112.4106,-942.39435,-3243.8704,-5169.534,2301.6196,-29280.916,-34459.613,-24682.473,-6947.879,-1607.5826,-29343.3,-1642.1573,-29879.96,-36143.254,-32818.816,-33805.7,-36268.773,-33645.6,-29561.271,-29582.318,-32671.496,-32085.229,-30172.344,-33899.652
132,0.528,306.528,-17405.99,-29623.656,-19261.002,-9162.167,-22266.75,-20353.865,-18325.98,6691.862,-13111.205,3550.0688,-886.7741,-26322.52,-16500.283,-12038.636,-23582.846,-18123.793,533.0457,-6299.2266,-7978.357,-1207.718,-19989.326,9318.792,-30224.957,1788.2596,-32931.56,-15674.998,-146.42339,9309.0205,-967.198,-20773.271,7341.266,-6520.204,-3051.4543,-25531.81,2943.5073,-5113.9136,-941.64276,-3246.1252,-5168.031,2300.868,-29277.91,-34462.62,-24683.977,-6946.376,-1607.5826,-29344.053,-1642.9089,-29877.707,-36146.258,-32816.56,-33806.45,-36270.277,-33650.113,-29562.775,-29578.559,-32672.248,-32081.47,-30169.336,-33901.906
133,0.532,306.532,-17402.984,-29618.396,-19260.25,-9160.663,-22262.992,-20352.361,-18321.47,6694.1167,-13108.95,3553.0754,-885.2709,-26317.258,-16500.283,-12033.374,-23583.598,-18119.283,534.54895,-6299.2266,-7976.102,-1206.2148,-19986.32,9319.543,-30219.695,1789.0112,-32925.547,-15675.75,-145.67177,9310.523,-967.198,-20768.762,7342.0176,-6512.688,-3050.703,-25510.764,2942.0042,-5114.6655,-940.8911,-3243.8704,-5168.782,2304.6262,-29280.164,-34459.613,-24685.48,-6948.631,-1606.8309,-29347.059,-1642.1573,-29880.713,-36142.5,-32820.32,-33808.707,-36268.773,-33653.87,-29561.271,-29583.068,-32670.746,-32082.975,-30173.846,-33899.652
134,0.536,306.536,-17407.494,-29616.893,-19260.25,-9161.415,-22265.248,-20349.355,-18325.98,6692.6133,-13110.453,3550.8206,-886.0225,-26316.506,-16501.785,-12034.126,-23579.84,-18125.297,533.0457,-6299.2266,-7976.854,-1206.9664,-19987.822,9318.792,-30221.2,1789.0112,-32927.8,-15675.75,-145.67177,9308.269,-967.198,-20771.768,7340.514,-6520.204,-3049.9512,-25540.83,2943.5073,-5114.6655,-941.64276,-3245.3738,-5166.5273,2301.6196,-29276.406,-34460.363,-24685.48,-6946.376,-1607.5826,-29342.549,-1642.1573,-29873.197,-36144.004,-32816.56,-33805.7,-36268.023,-33645.6,-29561.271,-29579.31,-32667.738,-32079.969,-30169.336,-33896.645
135,0.54,306.54,-17407.494,-29613.135,-19254.988,-9161.415,-22266.75,-20350.857,-18325.98,6693.365,-13109.702,3552.3237,-886.0225,-26312.748,-16503.29,-12034.878,-23584.35,-18126.047,533.0457,-6298.475,-7976.854,-1207.718,-19987.822,9315.785,-30222.703,1785.2532,-32934.566,-15672.743,-145.67177,9307.518,-969.4529,-20770.266,7339.011,-6522.459,-3055.2126,-25537.07,2942.0042,-5113.162,-943.146,-3244.622,-5169.534,2300.1165,-29281.668,-34461.867,-24684.729,-6947.879,-1608.3342,-29344.053,-1643.6606,-29876.203,-36143.254,-32818.062,-33804.195,-36265.016,-33646.355,-29560.52,-29580.062,-32666.236,-32078.465,-30168.586,-33898.15
136,0.544,306.544,-17408.246,-29621.402,-19258.746,-9164.422,-22269.006,-20355.367,-18324.477,6691.1104,-13111.957,3550.8206,-889.78064,-26317.258,-16505.543,-12034.126,-23588.86,-18125.297,532.29407,-6299.978,-7976.854,-1212.2278,-19987.072,9312.778,-30220.447,1779.2401,-32931.56,-15674.246,-146.42339,9308.269,-970.2045,-20767.258,7334.5015,-6520.204,-3059.7224,-25535.568,2942.0042,-5112.4106,-944.64923,-3243.8704,-5173.292,2303.8745,-29285.426,-34460.363,-24683.225,-6948.631,-1607.5826,-29347.81,-1640.654,-29878.457,-36140.246,-32817.312,-33804.195,-36262.76,-33650.113,-29557.514,-29581.566,-32663.229,-32075.459,-30167.834,-33892.137
137,0.548,306.548,-17414.258,-29630.422,-19268.518,-9168.18,-22271.26,-20364.387,-18328.986,6689.607,-13114.963,3548.5657,-892.0355,-26324.773,-16508.55,-12037.133,-23593.37,-18125.297,531.5425,-6301.4814,-7979.109,-1212.9794,-19988.574,9311.275,-30222.703,1779.2401,-32931.56,-15676.501,-147.17502,9309.772,-971.70776,-20768.01,7334.5015,-6520.204,-3057.4675,-25535.568,2942.0042,-5112.4106,-945.4009,-3242.3672,-5174.7954,2303.8745,-29289.184,-34461.867,-24683.225,-6950.134,-1606.8309,-29350.066,-1639.1509,-29880.713,-36144.004,-32815.81,-33803.445,-36264.266,-33652.367,-29556.01,-29580.814,-32661.727,-32075.459,-30169.336,-33892.137
138,0.552,306.552,-17409.748,-29626.664,-19266.264,-9164.422,-22268.254,-20359.877,-18327.482,6691.862,-13112.708,3550.8206,-890.5322,-26325.525,-16507.799,-12034.878,-23586.604,-18125.297,533.79736,-6301.4814,-7976.102,-1209.9729,-19987.822,9312.778,-30218.193,1781.495,-32930.055,-15677.253,-146.42339,9311.275,-970.9561,-20765.756,7334.5015,-6519.4526,-3058.9707,-25538.574,2941.2527,-5111.6587,-946.9041,-3242.3672,-5176.299,2304.6262,-29290.688,-34463.37,-24685.48,-6952.3887,-1608.3342,-29357.582,-1640.654,-29882.217,-36147.01,-32822.574,-33807.953,-36269.527,-33659.133,-29560.52,-29587.578,-32670.746,-32084.479,-30179.86,-33900.402
139,0.556,306.556,-17412.756,-29625.16,-19266.264,-9168.18,-22271.26,-20362.885,-18328.986,6688.8555,-13114.963,3547.814,-892.0355,-26319.514,-16510.053,-12037.133,-23588.107,-18126.799,531.5425,-6301.4814,-7977.6055,-1210.7245,-19988.574,9310.523,-30217.441,1779.2401,-32928.55,-15674.246,-147.17502,9309.772,-972.4594,-20762.748,7333.7495,-6518.701,-3058.9707,-25531.81,2941.2527,-5110.156,-947.65576,-3238.6091,-5174.7954,2306.1294,-29289.184,-34458.11,-24684.729,-6953.1406,-1604.576,-29354.574,-1638.3992,-29879.96,-36144.004,-32821.07,-33809.457,-36270.277,-33653.87,-29558.266,-29587.578,-32665.484,-32085.98,-30176.854,-33898.902
140,0.56,306.56,-17416.514,-29626.664,-19266.264,-9167.428,-22270.508,-20365.89,-18331.992,6688.1035,-13115.715,3546.3108,-893.53876,-26315.754,-16510.053,-12037.884,-23588.107,-18126.799,532.29407,-6302.233,-7979.109,-1211.4762,-19986.32,9310.523,-30220.447,1779.9918,-32928.55,-15673.495,-147.17502,9309.772,-971.70776,-20765.004,7335.253,-6519.4526,-3056.7158,-25534.064,2942.0042,-5110.907,-946.1525,-3237.8574,-5171.037,2305.3777,-29284.674,-34458.11,-24684.729,-6950.134,-1605.3278,-29350.066,-1637.6476,-29874.7,-36144.758,-32820.32,-33808.707,-36268.773,-33647.105,-29557.514,-29582.318,-32668.49,-32087.484,-30175.35,-33897.4
141,0.564,306.564,-17414.258,-29626.664,-19266.264,-9167.428,-22272.012,-20363.635,-18330.49,6688.8555,-13115.715,3547.814,-892.0355,-26318.01,-16510.053,-12035.629,-23591.865,-18127.55,531.5425,-6302.233,-7978.357,-1211.4762,-19986.32,9310.523,-30219.695,1778.4885,-32925.547,-15674.246,-146.42339,9310.523,-972.4594,-20767.258,7333.7495,-6519.4526,-3058.219,-25534.816,2940.501,-5110.907,-946.1525,-3238.6091,-5173.292,2306.1294,-29288.432,-34458.86,-24684.729,-6951.637,-1606.8309,-29352.32,-1639.9025,-29879.96,-36147.01,-32822.574,-33811.71,-36270.277,-33651.617,-29559.018,-29584.572,-32671.496,-32090.49,-30179.86,-33903.41
142,0.568,306.568,-17415.01,-29632.676,-19269.27,-9168.932,-22272.764,-20363.635,-18331.242,6688.8555,-13115.715,3548.5657,-892.0355,-26328.533,-16511.557,-12035.629,-23593.37,-18127.55,533.0457,-6302.985,-7978.357,-1212.2278,-19985.568,9311.275,-30218.943,1779.9918,-32926.297,-15677.253,-147.17502,9311.275,-970.9561,-20768.01,7334.5015,-6519.4526,-3056.7158,-25535.568,2940.501,-5111.6587,-944.64923,-3239.3606,-5172.5405,2306.1294,-29288.432,-34462.62,-24684.729,-6950.8857,-1606.8309,-29356.078,-1639.1509,-29880.713,-36144.758,-32822.574,-33812.465,-36270.277,-33654.62,-29562.023,-29586.076,-32672.248,-32092.746,-30180.611,-33902.66
143,0.572,306.572,-17415.01,-29634.932,-19271.523,-9168.18,-22272.764,-20364.387,-18331.242,6688.8555,-13117.218,3547.814,-892.0355,-26329.283,-16510.053,-12035.629,-23591.113,-18128.303,532.29407,-6302.233,-7978.357,-1209.9729,-19987.072,9312.778,-30220.447,1782.2467,-32927.8,-15677.253,-147.17502,9311.275,-970.2045,-20768.762,7335.253,-6520.204,-3055.964,-25534.064,2940.501,-5111.6587,-943.89764,-3237.8574,-5171.789,2306.1294,-29287.68,-34460.363,-24683.977,-6950.8857,-1606.0793,-29353.824,-1639.1509,-29879.209,-36147.01,-32824.08,-33810.96,-36271.03,-33656.88,-29561.271,-29586.076,-32675.256,-32096.504,-30182.115,-33905.664
144,0.576,306.576,-17412.756,-29627.416,-19266.264,-9166.677,-22270.508,-20361.38,-18331.242,6688.1035,-13114.963,3547.0625,-890.5322,-26318.762,-16509.303,-12035.629,-23586.604,-18126.047,530.79083,-6302.233,-7978.357,-1209.9729,-19984.064,9313.53,-30216.69,1782.2467,-32924.793,-15678.005,-147.17502,9312.027,-970.2045,-20765.004,7336.7563,-6517.949,-3053.7092,-25531.059,2940.501,-5110.907,-944.64923,-3236.3542,-5169.534,2309.1357,-29284.674,-34455.855,-24681.723,-6950.134,-1603.0729,-29349.314,-1637.6476,-29874.7,-36140.246,-32823.324,-33806.45,-36266.52,-33653.12,-29558.266,-29581.566,-32672.248,-32086.732,-30175.35,-33898.902
145,0.58,306.58,-17412.004,-29620.65,-19263.256,-9165.173,-22269.006,-20359.877,-18325.98,6690.3584,-13111.205,3548.5657,-888.27734,-26318.762,-16506.295,-12035.629,-23580.592,-18128.303,533.0457,-6300.73,-7976.854,-1206.9664,-19984.064,9315.033,-30221.951,1785.2532,-32924.043,-15674.246,-146.42339,9311.275,-969.4529,-20764.252,7339.011,-6518.701,-3052.206,-25533.312,2941.2527,-5111.6587,-944.64923,-3237.106,-5168.782,2307.6326,-29283.17,-34460.363,-24680.97,-6950.134,-1603.8245,-29350.816,-1638.3992,-29873.197,-36141.75,-32826.332,-33808.707,-36264.266,-33653.12,-29556.762,-29589.834,-32669.994,-32091.994,-30181.363,-33900.402
146,0.584,306.584,-17408.246,-29619.146,-19262.504,-9162.918,-22268.254,-20359.125,-18327.482,6691.862,-13111.205,3550.8206,-887.52576,-26323.271,-16504.793,-12034.126,-23582.094,-18126.799,534.54895,-6299.978,-7975.3506,-1207.718,-19981.059,9315.785,-30211.428,1785.2532,-32926.297,-15674.998,-144.92014,9311.275,-968.70123,-20765.756,7338.2593,-6518.701,-3053.7092,-25533.312,2942.7559,-5112.4106,-943.89764,-3237.8574,-5171.037,2306.8809,-29283.17,-34462.62,-24683.225,-6950.134,-1606.8309,-29350.066,-1641.4058,-29877.707,-36147.76,-32829.34,-33808.707,-36268.773,-33657.63,-29565.03,-29591.338,-32677.51,-32101.014,-30185.873,-33907.168
147,0.588,306.588,-17410.5,-29624.408,-19267.014,-9163.67,-22270.508,-20362.133,-18329.738,6691.1104,-13113.46,3550.0688,-889.78064,-26331.54,-16507.047,-12035.629,-23589.611,-18126.047,533.0457,-6299.978,-7976.854,-1209.2213,-19985.568,9315.033,-30220.447,1785.2532,-32924.043,-15675.75,-144.92014,9309.772,-967.94965,-20771.016,7339.011,-6521.7075,-3052.206,-25535.568,2941.2527,-5113.9136,-942.39435,-3240.1123,-5168.031,2305.3777,-29281.668,-34461.867,-24682.473,-6948.631,-1606.0793,-29352.32,-1641.4058,-29874.7,-36147.76,-32822.574,-33806.45,-36269.527,-33654.62,-29561.271,-29585.324,-32676.758,-32095.752,-30179.107,-33901.156
148,0.592,306.592,-17406.742,-29625.16,-19264.76,-9161.415,-22269.006,-20358.375,-18327.482,6693.365,-13111.205,3551.5723,-888.27734,-26330.787,-16505.543,-12035.629,-23588.107,-18125.297,533.79736,-6299.978,-7974.599,-1208.4697,-19983.312,9317.288,-30219.695,1787.508,-32921.035,-15677.253,-145.67177,9309.772,-967.198,-20773.271,7340.514,-6521.7075,-3049.9512,-25535.568,2942.0042,-5112.4106,-939.3879,-3238.6091,-5165.0244,2304.6262,-29278.66,-34462.62,-24680.219,-6946.376,-1606.0793,-29351.568,-1640.654,-29870.941,-36149.266,-32820.32,-33804.195,-36267.27,-33653.12,-29559.77,-29580.814,-32671.496,-32091.994,-30176.102,-33894.39
149,0.596,306.596,-17406.742,-29619.898,-19264.008,-9160.663,-22269.006,-20356.871,-18330.49,6691.1104,-13111.205,3549.3174,-888.27734,-26324.773,-16504.793,-12037.133,-23582.846,-18126.799,531.5425,-6299.978,-7977.6055,-1207.718,-19985.568,9315.785,-30221.951,1786.7563,-32918.03,-15675.75,-144.16852,9309.0205,-966.4464,-20773.271,7339.011,-6523.9624,-3052.206,-25539.326,2944.259,-5112.4106,-940.8911,-3240.1123,-5165.776,2302.3713,-29278.66,-34464.875,-24680.97,-6945.624,-1606.8309,-29347.059,-1644.4122,-29869.438,-36150.77,-32822.574,-33802.69,-36268.773,-33653.87,-29562.023,-29580.814,-32673.752,-32087.484,-30172.344,-33898.15
150,0.6,306.6,-17408.998,-29621.402,-19263.256,-9162.167,-22265.248,-20359.877,-18333.496,6691.1104,-13112.708,3547.814,-889.78064,-26327.781,-16504.793,-12036.381,-23581.342,-18129.055,533.0457,-6301.4814,-7979.109,-1207.718,-19983.312,9316.537,-30221.2,1789.763,-32921.035,-15674.246,-143.41689,9307.518,-966.4464,-20771.016,7341.266,-6523.211,-3049.9512,-25539.326,2944.259,-5113.162,-939.3879,-3240.864,-5162.0176,2301.6196,-29274.15,-34469.383,-24680.219,-6944.121,-1608.3342,-29342.549,-1646.6671,-29864.178,-36152.273,-32824.08,-33799.688,-36269.527,-33642.598,-29563.527,-29575.553,-32674.504,-32085.229,-30167.082,-33900.402
151,0.604,306.604,-17405.99,-29622.906,-19261.002,-9160.663,-22269.006,-20356.12,-18340.262,6692.6133,-13111.205,3552.3237,-889.029,-26315.754,-16502.537,-12016.839,-23581.342,-18125.297,535.3006,-6299.978,-7973.847,-1208.4697,-19976.549,9317.288,-30212.18,1781.495,-32910.51,-15674.246,-144.92014,9312.027,-967.198,-20767.258,7339.7627,-6519.4526,-3050.703,-25533.312,2942.0042,-5110.907,-942.39435,-3237.8574,-5165.776,2306.8809,-29277.91,-34458.11,-24682.473,-6947.879,-1606.0793,-29347.81,-1641.4058,-29871.693,-36146.258,-32827.082,-33804.195,-36272.53,-33649.36,-29561.271,-29584.572,-32674.504,-32091.242,-30175.35,-33899.652
152,0.608,306.608,-17408.998,-29630.422,-19265.512,-9164.422,-22269.758,-20358.375,-18322.973,6692.6133,-13112.708,3550.8206,-889.78064,-26329.283,-16504.793,-12038.636,-23588.107,-18129.055,534.54895,-6301.4814,-7976.102,-1209.2213,-19981.81,9316.537,-30218.193,1786.7563,-32918.78,-15675.75,-144.92014,9310.523,-968.70123,-20768.01,7339.011,-6519.4526,-3050.703,-25534.816,2942.0042,-5110.907,-941.64276,-3237.106,-5166.5273,2306.8809,-29278.66,-34461.117,-24682.473,-6947.879,-1605.3278,-29350.066,-1639.9025,-29867.184,-36145.508,-32824.08,-33801.188,-36267.27,-33650.863,-29559.018,-29577.809,-32673.752,-32084.479,-30171.592,-33895.14
153,0.612,306.612,-17405.99,-29628.166,-19258.746,-9162.167,-22266.75,-20356.871,-18325.98,6694.1167,-13110.453,3551.5723,-888.27734,-26330.787,-16502.537,-12034.878,-23583.598,-18120.787,535.3006,-6299.978,-7974.599,-1207.718,-19983.312,9317.288,-30212.932,1791.2661,-32927.8,-15676.501,-143.41689,9312.778,-967.198,-20761.996,7341.266,-6512.688,-3050.703,-25540.83,2941.2527,-5109.404,-942.39435,-3234.851,-5167.2793,2306.8809,-29278.66,-34461.867,-24682.473,-6948.631,-1603.0729,-29352.32,-1640.654,-29871.693,-36143.254,-32824.83,-33804.195,-36267.27,-33656.88,-29559.018,-29584.572,-32675.256,-32091.242,-30179.107,-33898.15
154,0.616,306.616,-17406.742,-29619.146,-19255.74,-9160.663,-22266.75,-20355.367,-18319.967,6692.6133,-13110.453,3550.8206,-886.7741,-26327.03,-16501.785,-12028.865,-23581.342,-18121.537,534.54895,-6299.978,-7976.854,-1208.4697,-19981.81,9318.04,-30213.684,1792.0178,-32909.01,-15674.998,-144.92014,9309.772,-966.4464,-20764.252,7340.514,-6519.4526,-3051.4543,-25543.084,2941.2527,-5110.907,-942.39435,-3237.106,-5166.5273,2301.6196,-29280.916,-34479.906,-24681.723,-6948.631,-1605.3278,-29347.81,-1644.4122,-29867.936,-36150.77,-32822.574,-33801.188,-36265.016,-33650.113,-29559.77,-29583.068,-32671.496,-32088.236,-30176.102,-33894.39
155,0.62,306.62,-17408.246,-29617.645,-19260.25,-9162.918,-22270.508,-20356.871,-18322.973,6691.1104,-13111.957,3549.3174,-888.27734,-26327.03,-16505.543,-12031.12,-23583.598,-18121.537,533.0457,-6300.73,-7976.854,-1210.7245,-19981.059,9315.033,-30211.428,1788.2596,-32912.77,-15674.246,-146.42339,9309.772,-968.70123,-20760.494,7339.011,-6514.943,-3055.964,-25528.803,2940.501,-5109.404,-943.89764,-3232.5962,-5168.031,2314.3972,-29277.158,-34452.098,-24681.723,-6948.631,-1600.0664,-29345.557,-1635.3927,-29866.432,-36137.992,-32824.83,-33801.94,-36264.266,-33650.863,-29556.01,-29586.828,-32670.746,-32088.988,-30176.854,-33892.137
156,0.624,306.624,-17409.748,-29622.154,-19260.25,-9165.173,-22271.26,-20359.125,-18323.725,6689.607,-13114.211,3548.5657,-889.029,-26330.787,-16508.55,-12033.374,-23583.598,-18123.041,531.5425,-6301.4814,-7977.6055,-1212.2278,-19981.81,9314.282,-30212.932,1789.0112,-32914.273,-15674.998,-147.17502,9310.523,-969.4529,-20764.252,7339.011,-6517.1978,-3054.461,-25534.816,2940.501,-5107.901,-944.64923,-3233.3477,-5168.782,2309.1357,-29279.412,-34458.86,-24682.473,-6949.3823,-1601.5696,-29348.562,-1636.1444,-29870.19,-36135.74,-32826.332,-33804.195,-36262.01,-33655.375,-29553.756,-29587.578,-32667.738,-32085.98,-30176.102,-33889.883
157,0.628,306.628,-17405.238,-29625.16,-19260.25,-9162.167,-22269.006,-20356.12,-18323.725,6689.607,-13113.46,3549.3174,-889.78064,-26334.545,-16507.047,-12033.374,-23584.35,-18122.29,532.29407,-6303.7363,-7976.854,-1211.4762,-19986.32,9314.282,-30216.69,1786.7563,-32913.52,-15677.253,-147.17502,9310.523,-970.9561,-20768.01,7336.7563,-6516.4463,-3056.7158,-25536.32,2939.7493,-5110.156,-944.64923,-3235.6025,-5170.2856,2305.3777,-29278.66,-34465.625,-24684.729,-6950.134,-1604.576,-29355.326,-1638.3992,-29870.941,-36146.258,-32829.34,-33805.7,-36264.266,-33659.133,-29558.266,-29584.572,-32674.504,-32088.236,-30180.611,-33893.64
158,0.632,306.632,-17408.246,-29628.166,-19264.008,-9162.918,-22271.26,-20359.877,-18322.973,6691.1104,-13112.708,3549.3174,-889.029,-26330.035,-16507.047,-12032.623,-23582.094,-18122.29,533.0457,-6302.233,-7976.102,-1209.9729,-19985.568,9317.288,-30215.186,1790.5145,-32912.77,-15676.501,-146.42339,9309.772,-967.94965,-20770.266,7339.011,-6517.1978,-3052.206,-25536.32,2938.9978,-5112.4106,-943.89764,-3237.106,-5169.534,2304.6262,-29277.158,-34465.625,-24685.48,-6950.8857,-1604.576,-29353.072,-1639.1509,-29868.688,-36146.258,-32830.09,-33806.45,-36266.52,-33659.883,-29557.514,-29588.33,-32676.006,-32091.242,-30182.865,-33895.895
159,0.636,306.636,-17406.742,-29618.396,-19257.244,-9159.912,-22269.006,-20355.367,-18321.47,6691.862,-13111.205,3549.3174,-886.0225,-26327.03,-16501.033,-12030.368,-23578.336,-18120.035,532.29407,-6300.73,-7976.102,-1206.9664,-19982.562,9320.295,-30215.186,1794.2727,-32914.273,-15675.75,-144.92014,9309.772,-964.9431,-20768.01,7342.769,-6515.6943,-3046.9446,-25531.059,2942.7559,-5110.156,-940.1395,-3236.3542,-5161.266,2305.3777,-29271.896,-34465.625,-24683.225,-6945.624,-1603.8245,-29347.059,-1639.1509,-29859.668,-36146.258,-32828.586,-33801.188,-36266.52,-33650.113,-29557.514,-29580.062,-32673.0,-32084.479,-30175.35,-33889.883
160,0.64,306.64,-17406.742,-29615.389,-19257.994,-9160.663,-22269.006,-20350.857,-18323.725,6690.3584,-13111.205,3548.5657,-887.52576,-26325.525,-16503.29,-12031.871,-23573.074,-18123.041,532.29407,-6302.233,-7977.6055,-1207.718,-19981.81,9319.543,-30209.924,1793.521,-32915.023,-15674.246,-145.67177,9308.269,-965.69476,-20765.756,7342.769,-6514.943,-3048.448,-25535.568,2941.2527,-5111.6587,-941.64276,-3236.3542,-5164.2725,2305.3777,-29274.15,-34466.38,-24684.729,-6948.631,-1605.3278,-29349.314,-1639.1509,-29863.426,-36144.004,-32830.84,-33804.195,-36271.03,-33651.617,-29559.018,-29587.578,-32672.248,-32095.0,-30184.37,-33895.895
161,0.644,306.644,-17405.238,-29616.14,-19257.994,-9160.663,-22268.254,-20355.367,-18322.973,6691.862,-13110.453,3549.3174,-887.52576,-26328.533,-16502.537,-12033.374,-23578.336,-18121.537,533.0457,-6300.73,-7977.6055,-1209.2213,-19984.816,9318.792,-30215.938,1793.521,-32921.79,-15674.246,-145.67177,9309.0205,-966.4464,-20768.762,7343.521,-6522.459,-3048.448,-25538.574,2941.2527,-5113.162,-940.8911,-3240.1123,-5162.0176,2303.1228,-29273.4,-34468.633,-24682.473,-6946.376,-1606.0793,-29347.81,-1641.4058,-29859.668,-36147.76,-32830.84,-33804.195,-36271.03,-33647.105,-29559.018,-29585.324,-32669.242,-32092.746,-30181.363,-33889.883
162,0.648,306.648,-17406.742,-29622.154,-19260.25,-9162.918,-22268.254,-20359.877,-18320.719,6691.862,-13112.708,3550.8206,-889.78064,-26332.291,-16504.041,-12031.12,-23583.598,-18121.537,533.0457,-6302.233,-7975.3506,-1210.7245,-19982.562,9318.04,-30213.684,1792.7694,-32913.52,-15675.75,-146.42339,9310.523,-967.198,-20765.004,7341.266,-6515.6943,-3049.9512,-25515.273,2940.501,-5112.4106,-942.39435,-3237.8574,-5165.0244,2306.8809,-29277.158,-34467.13,-24682.473,-6947.1274,-1605.3278,-29350.066,-1639.9025,-29863.426,-36144.758,-32830.84,-33804.95,-36270.277,-33652.367,-29559.018,-29585.324,-32671.496,-32094.248,-30180.611,-33892.137
163,0.652,306.652,-17405.238,-29623.656,-19258.746,-9162.918,-22266.75,-20360.629,-18319.967,6691.1104,-13113.46,3550.8206,-890.5322,-26328.533,-16507.799,-12030.368,-23587.355,-18120.787,533.79736,-6301.4814,-7976.102,-1212.2278,-19984.816,9317.288,-30212.18,1792.0178,-32912.016,-15674.998,-147.17502,9309.0205,-967.94965,-20767.258,7342.0176,-6517.1978,-3050.703,-25543.084,2941.2527,-5111.6587,-942.39435,-3237.8574,-5164.2725,2306.8809,-29275.654,-34461.867,-24681.723,-6945.624,-1603.8245,-29346.307,-1636.896,-29861.922,-36142.5,-32828.586,-33801.94,-36268.023,-33647.105,-29556.762,-29580.814,-32669.994,-32091.242,-30177.605,-33889.13
164,0.656,306.656,-17408.246,-29622.906,-19260.25,-9163.67,-22270.508,-20362.133,-18326.732,6689.607,-13112.708,3549.3174,-890.5322,-26324.023,-16507.047,-12033.374,-23581.342,-18122.29,530.79083,-6302.233,-7977.6055,-1212.2278,-19984.064,9315.785,-30210.676,1793.521,-32917.277,-15675.75,-146.42339,9308.269,-967.94965,-20765.756,7342.769,-6519.4526,-3047.6963,-25539.326,2941.2527,-5112.4106,-940.8911,-3239.3606,-5159.7627,2304.6262,-29270.393,-34464.875,-24680.97,-6944.121,-1606.0793,-29341.797,-1639.9025,-29853.654,-36144.004,-32827.082,-33802.69,-36271.78,-33643.348,-29560.52,-29575.553,-32673.752,-32090.49,-30173.846,-33891.383
165,0.66,306.66,-17402.984,-29616.14,-19254.988,-9161.415,-22265.248,-20356.12,-18321.47,6690.3584,-13110.453,3548.5657,-887.52576,-26320.264,-16504.041,-12033.374,-23575.33,-18123.793,533.0457,-6299.978,-7979.109,-1209.9729,-19983.312,9318.792,-30210.676,1795.0243,-32914.273,-15674.246,-146.42339,9307.518,-967.94965,-20764.252,7343.521,-6518.701,-3049.1995,-25537.07,2941.2527,-5112.4106,-942.39435,-3237.8574,-5159.011,2303.8745,-29273.4,-34460.363,-24680.219,-6945.624,-1605.3278,-29341.047,-1639.1509,-29857.412,-36143.254,-32828.586,-33804.195,-36268.773,-33643.348,-29558.266,-29580.814,-32672.248,-32088.236,-30174.598,-33891.383
166,0.664,306.664,-17405.99,-29618.396,-19257.994,-9163.67,-22269.758,-20358.375,-18326.732,6690.3584,-13111.205,3549.3174,-889.029,-26325.525,-16505.543,-12035.629,-23582.094,-18127.55,532.29407,-6299.978,-7978.357,-1209.9729,-19985.568,9318.04,-30214.434,1794.2727,-32918.78,-15674.246,-146.42339,9307.518,-966.4464,-20769.514,7342.769,-6523.9624,-3049.9512,-25542.332,2942.0042,-5112.4106,-942.39435,-3240.1123,-5158.26,2299.3647,-29275.654,-34470.887,-24680.219,-6944.121,-1607.5826,-29340.295,-1641.4058,-29858.164,-36149.266,-32824.83,-33802.69,-36269.527,-33642.598,-29559.018,-29579.31,-32669.994,-32086.732,-30172.344,-33890.633
167,0.668,306.668,-17405.99,-29627.416,-19263.256,-9163.67,-22269.758,-20362.885,-18326.732,6690.3584,-13112.708,3548.5657,-889.78064,-26331.54,-16507.047,-12035.629,-23585.852,-18128.303,532.29407,-6299.978,-7978.357,-1210.7245,-19986.32,9316.537,-30216.69,1790.5145,-32917.277,-15675.75,-147.17502,9306.766,-966.4464,-20771.768,7342.0176,-6522.459,-3049.9512,-25540.83,2942.0042,-5113.162,-940.8911,-3243.119,-5158.26,2297.8616,-29274.15,-34474.645,-24677.963,-6942.6177,-1605.3278,-29342.549,-1640.654,-29855.908,-36150.02,-32821.82,-33798.184,-36264.266,-33646.355,-29556.01,-29573.299,-32665.484,-32076.209,-30164.076,-33886.875
168,0.672,306.672,-17402.984,-29622.154,-19258.746,-9160.663,-22265.248,-20361.38,-18322.223,6693.365,-13111.205,3551.5723,-889.029,-26324.773,-16503.29,-12031.871,-23585.102,-18123.793,534.54895,-6299.2266,-7975.3506,-1209.9729,-19984.816,9317.288,-30211.428,1791.2661,-32915.773,-15675.75,-145.67177,9307.518,-967.198,-20771.768,7340.514,-6520.204,-3052.206,-25535.568,2942.0042,-5111.6587,-942.39435,-3241.6155,-5162.7695,2300.868,-29280.916,-34467.88,-24678.715,-6945.624,-1606.8309,-29349.314,-1640.654,-29863.426,-36145.508,-32827.082,-33803.445,-36266.52,-33654.62,-29558.266,-29583.068,-32669.242,-32085.229,-30176.102,-33892.887
169,0.676,306.676,-17404.488,-29619.898,-19257.994,-9161.415,-22265.998,-20359.125,-18333.496,6692.6133,-13109.702,3551.5723,-888.27734,-26318.762,-16504.793,-12025.106,-23580.592,-18126.047,533.79736,-6298.475,-7976.102,-1210.7245,-19983.312,9315.033,-30210.676,1789.763,-32915.773,-15673.495,-144.92014,9307.518,-967.94965,-20771.016,7339.7627,-6519.4526,-3053.7092,-25535.568,2942.7559,-5111.6587,-942.39435,-3242.3672,-5162.0176,2299.3647,-29280.916,-34469.383,-24679.467,-6944.8726,-1606.8309,-29347.81,-1640.654,-29862.674,-36145.508,-32825.58,-33801.94,-36265.77,-33648.61,-29556.762,-29582.318,-32668.49,-32082.975,-30172.344,-33889.883
170,0.68,306.68,-17405.238,-29617.645,-19258.746,-9165.173,-22267.502,-20359.125,-18323.725,6691.1104,-13108.95,3550.8206,-889.029,-26319.514,-16507.047,-12032.623,-23580.592,-18131.309,533.0457,-6298.475,-7976.102,-1212.9794,-19982.562,9312.778,-30209.174,1780.7434,-32921.035,-15671.991,-145.67177,9306.766,-969.4529,-20768.762,7337.508,-6520.204,-3055.2126,-25534.064,2942.0042,-5111.6587,-942.39435,-3242.3672,-5162.0176,2300.1165,-29280.916,-34467.88,-24678.715,-6944.8726,-1606.8309,-29344.053,-1640.654,-29859.668,-36144.758,-32824.08,-33800.438,-36265.016,-33648.61,-29555.26,-29582.318,-32667.738,-32083.727,-30170.088,-33888.38
171,0.684,306.684,-17404.488,-29618.396,-19258.746,-9163.67,-22264.496,-20359.125,-18321.47,6693.365,-13109.702,3552.3237,-888.27734,-26321.016,-16509.303,-12037.133,-23582.094,-18127.55,534.54895,-6298.475,-7975.3506,-1211.4762,-19981.059,9313.53,-30210.676,1789.763,-32918.78,-15674.246,-145.67177,9307.518,-969.4529,-20771.768,7337.508,-6518.701,-3053.7092,-25530.307,2942.0042,-5110.907,-943.146,-3242.3672,-5162.0176,2300.868,-29277.91,-34465.625,-24678.715,-6946.376,-1606.8309,-29346.307,-1639.9025,-29863.426,-36144.758,-32827.082,-33803.445,-36268.773,-33653.12,-29556.01,-29583.068,-32670.746,-32088.988,-30173.096,-33896.645
172,0.688,306.688,-17407.494,-29627.416,-19261.754,-9166.677,-22269.006,-20363.635,-18326.732,6692.6133,-13111.205,3548.5657,-891.2839,-26333.793,-16510.053,-12040.139,-23583.598,-18130.557,532.29407,-6299.2266,-7978.357,-1213.7311,-19989.326,9313.53,-30215.186,1789.763,-32922.54,-15675.75,-145.67177,9306.766,-970.9561,-20779.285,7335.253,-6525.466,-3055.2126,-25540.83,2941.2527,-5112.4106,-943.146,-3246.1252,-5165.0244,2297.8616,-29281.668,-34470.887,-24677.963,-6947.1274,-1606.8309,-29349.314,-1642.9089,-29863.426,-36147.76,-32826.332,-33802.69,-36267.27,-33656.88,-29559.018,-29580.814,-32672.248,-32082.975,-30171.592,-33894.39
173,0.692,306.692,-17413.508,-29633.428,-19271.523,-9171.187,-22277.273,-20369.648,-18341.012,6688.8555,-13115.715,3545.559,-895.042,-26347.322,-16514.562,-12048.407,-23590.361,-18140.328,530.79083,-6302.233,-7980.612,-1215.986,-19992.332,9308.269,-30221.951,1782.9983,-32922.54,-15675.75,-147.17502,9306.014,-972.4594,-20781.54,7330.743,-6523.211,-3062.7288,-25534.816,2942.0042,-5111.6587,-944.64923,-3243.8704,-5168.782,2299.3647,-29286.93,-34470.887,-24678.715,-6948.631,-1605.3278,-29353.824,-1640.654,-29868.688,-36145.508,-32825.58,-33800.438,-36267.27,-33657.63,-29556.01,-29582.318,-32669.242,-32082.223,-30170.088,-33892.137
174,0.696,306.696,-17421.775,-29630.422,-19282.799,-9172.689,-22281.031,-20367.395,-18355.293,6687.352,-13113.46,3543.3042,-892.0355,-26345.82,-16511.557,-12057.427,-23589.611,-18150.1,530.79083,-6299.978,-7982.8667,-1213.7311,-19996.842,9309.772,-30232.473,1783.7499,-32927.05,-15674.998,-145.67177,9305.263,-971.70776,-20780.787,7331.4946,-6527.7207,-3061.9773,-25541.58,2940.501,-5112.4106,-946.9041,-3245.3738,-5170.2856,2295.6067,-29292.19,-34476.9,-24680.219,-6952.3887,-1608.3342,-29356.078,-1643.6606,-29873.947,-36149.266,-32832.344,-33809.457,-36270.277,-33664.395,-29560.52,-29596.598,-32676.758,-32098.008,-30185.121,-33900.402
175,0.7,306.7,-17446.578,-29652.219,-19307.602,-9185.467,-22296.064,-20388.44,-18371.828,6679.0845,-13121.728,3535.788,-901.80664,-26345.068,-16520.576,-12066.446,-23605.395,-18162.877,527.0327,-6304.488,-7987.3765,-1220.4957,-19999.098,9300.001,-30230.219,1772.4755,-32934.566,-15674.998,-148.67827,9303.759,-975.4659,-20780.035,7326.2334,-6527.7207,-3069.4934,-25542.332,2941.2527,-5110.907,-948.4074,-3244.622,-5171.789,2296.3582,-29292.941,-34473.895,-24677.963,-6952.3887,-1605.3278,-29354.574,-1640.654,-29870.941,-36148.516,-32826.332,-33804.95,-36262.76,-33659.883,-29555.26,-29587.578,-32669.994,-32090.49,-30176.102,-33893.64
176,0.704,306.704,-17427.787,-29643.951,-19279.793,-9179.454,-22279.527,-20385.434,-18338.006,6684.3457,-13118.721,3542.5527,-901.055,-26336.049,-16521.328,-12047.655,-23606.898,-18137.322,528.53595,-6304.488,-7981.364,-1221.2473,-19990.078,9300.753,-30215.186,1773.2272,-32912.016,-15674.998,-149.42989,9306.766,-976.9691,-20774.775,7324.73,-6521.7075,-3067.2385,-25534.064,2940.501,-5108.6523,-949.159,-3244.622,-5173.292,2300.868,-29295.197,-34470.137,-24678.715,-6952.3887,-1603.8245,-29357.582,-1638.3992,-29870.941,-36149.266,-32827.082,-33806.45,-36264.266,-33664.395,-29556.01,-29588.33,-32672.248,-32088.988,-30177.605,-33896.645
177,0.708,306.708,-17402.232,-29627.416,-19254.236,-9168.18,-22262.992,-20371.904,-18309.443,6691.862,-13111.957,3549.3174,-895.042,-26327.781,-16516.818,-12027.361,-23597.127,-18116.277,533.0457,-6300.73,-7976.854,-1219.744,-19980.307,9304.511,-30206.166,1779.2401,-32910.51,-15673.495,-148.67827,9309.0205,-975.4659,-20771.768,7326.2334,-6515.6943,-3069.4934,-25524.293,2938.9978,-5108.6523,-949.159,-3243.8704,-5174.7954,2302.3713,-29294.445,-34467.13,-24680.97,-6953.1406,-1603.8245,-29359.084,-1637.6476,-29869.438,-36144.758,-32825.58,-33804.95,-36263.51,-33669.656,-29556.762,-29586.076,-32671.496,-32091.242,-30179.107,-33895.895
178,0.712,306.712,-17412.004,-29638.69,-19264.76,-9173.441,-22271.26,-20377.916,-18319.215,6687.352,-13117.218,3547.814,-898.8001,-26332.291,-16522.08,-12034.126,-23609.152,-18125.297,531.5425,-6303.7363,-7978.357,-1222.7505,-19987.822,9300.001,-30218.193,1773.2272,-32931.56,-15673.495,-149.42989,9307.518,-976.2175,-20778.533,7325.482,-6522.459,-3067.9902,-25534.064,2940.501,-5110.156,-949.159,-3247.6287,-5174.044,2300.1165,-29294.445,-34472.39,-24680.219,-6952.3887,-1606.0793,-29353.824,-1638.3992,-29870.941,-36151.52,-32827.082,-33804.95,-36263.51,-33667.4,-29556.762,-29584.572,-32669.994,-32088.988,-30175.35,-33892.887
179,0.716,306.716,-17420.271,-29640.193,-19264.76,-9178.702,-22266.75,-20388.44,-18316.209,6685.8486,-13117.97,3547.0625,-901.80664,-26326.277,-16527.342,-12030.368,-23616.67,-18120.787,532.29407,-6303.7363,-7976.102,-1222.7505,-19982.562,9297.746,-30212.932,1769.469,-32910.51,-15672.743,-148.67827,9308.269,-978.4724,-20773.271,7323.227,-6520.204,-3069.4934,-25538.574,2939.7493,-5110.156,-949.91064,-3248.3801,-5174.7954,2294.1033,-29293.693,-34495.69,-24680.219,-6952.3887,-1606.8309,-29350.066,-1643.6606,-29870.941,-36153.777,-32830.84,-33807.203,-36266.52,-33665.145,-29559.77,-29589.082,-32676.006,-32094.248,-30181.363,-33897.4
180,0.72,306.72,-17408.246,-29628.166,-19244.467,-9175.696,-22261.488,-20387.688,-18299.674,6689.607,-13114.211,3551.5723,-901.055,-26317.258,-16528.092,-12022.852,-23615.918,-18111.768,533.0457,-6304.488,-7973.0957,-1225.0054,-19976.549,9294.739,-30206.166,1765.7109,-32902.246,-15672.743,-149.42989,9309.0205,-978.4724,-20767.258,7322.475,-6511.9365,-3072.5,-25520.535,2937.4944,-5109.404,-950.66223,-3243.8704,-5175.547,2305.3777,-29294.445,-34461.117,-24679.467,-6953.892,-1603.0729,-29350.816,-1635.3927,-29873.947,-36144.004,-32830.84,-33807.953,-36265.016,-33665.145,-29556.01,-29593.592,-32669.242,-32095.0,-30182.115,-33893.64
181,0.724,306.724,-17415.762,-29640.193,-19254.236,-9180.957,-22265.248,-20396.707,-18304.184,6686.6006,-13118.721,3546.3108,-905.56476,-26330.035,-16531.852,-12029.616,-23623.434,-18114.773,530.79083,-6306.7427,-7976.854,-1227.2603,-19981.059,9291.733,-30212.932,1761.2012,-32906.754,-15674.246,-150.93314,9309.772,-979.97565,-20771.016,7320.2207,-6514.943,-3074.0032,-25527.3,2937.4944,-5110.907,-951.4139,-3246.877,-5174.7954,2302.3713,-29297.451,-34470.887,-24681.723,-6955.395,-1605.3278,-29353.824,-1639.9025,-29873.947,-36149.266,-32833.098,-33807.953,-36268.773,-33669.656,-29559.018,-29593.592,-32673.752,-32095.752,-30184.37,-33897.4
182,0.728,306.728,-17416.514,-29646.205,-19256.492,-9184.716,-22263.744,-20405.727,-18296.666,6685.097,-13120.976,3548.5657,-909.3229,-26326.277,-16539.367,-12024.355,-23635.459,-18107.258,531.5425,-6308.246,-7975.3506,-1231.0184,-19981.059,9287.975,-30207.67,1755.9398,-32907.508,-15674.246,-150.93314,9310.523,-981.4789,-20772.52,7316.4624,-6514.943,-3079.2646,-25532.56,2936.743,-5110.907,-952.9171,-3246.1252,-5178.5537,2301.6196,-29303.465,-34469.383,-24681.723,-6956.147,-1606.0793,-29357.582,-1639.1509,-29877.707,-36151.52,-32834.598,-33807.953,-36268.773,-33671.91,-29558.266,-29592.84,-32674.504,-32098.758,-30183.617,-33899.652
183,0.732,306.732,-17408.998,-29638.69,-19247.473,-9180.206,-22257.73,-20403.473,-18286.895,6688.1035,-13118.721,3551.5723,-906.31635,-26319.514,-16538.615,-12016.839,-23636.963,-18098.238,532.29407,-6307.4946,-7973.0957,-1229.5151,-19976.549,9288.727,-30201.656,1755.9398,-32899.24,-15674.998,-150.93314,9311.275,-981.4789,-20767.258,7317.214,-6509.6816,-3079.2646,-25519.783,2935.9912,-5111.6587,-952.1655,-3246.1252,-5177.802,2304.6262,-29303.465,-34466.38,-24681.723,-6955.395,-1605.3278,-29356.83,-1639.9025,-29877.707,-36150.77,-32833.848,-33808.707,-36271.03,-33676.418,-29559.018,-29594.344,-32676.758,-32100.262,-30184.37,-33898.902
184,0.736,306.736,-17415.762,-29635.684,-19246.72,-9182.461,-22257.73,-20406.479,-18283.889,6687.352,-13117.97,3551.5723,-905.56476,-26311.996,-16538.615,-12016.839,-23640.72,-18096.734,532.29407,-6306.7427,-7973.0957,-1230.2668,-19972.791,9287.224,-30200.904,1754.4365,-32901.492,-15674.246,-149.42989,9311.275,-980.72723,-20767.258,7317.966,-6511.185,-3078.513,-25521.287,2938.246,-5110.156,-951.4139,-3248.3801,-5174.7954,2304.6262,-29300.459,-34468.633,-24680.219,-6952.3887,-1606.8309,-29354.574,-1638.3992,-29872.445,-36150.02,-32831.594,-33804.195,-36269.527,-33668.152,-29557.514,-29588.33,-32673.752,-32094.248,-30176.854,-33894.39
185,0.74,306.74,-17405.99,-29626.664,-19232.44,-9178.702,-22250.215,-20402.72,-18268.105,6688.8555,-13116.466,3553.8271,-904.0615,-26305.232,-16533.354,-12005.564,-23634.709,-18082.453,532.29407,-6306.7427,-7970.0894,-1228.012,-19965.273,9288.727,-30190.383,1757.443,-32890.22,-15672.743,-148.67827,9312.778,-980.72723,-20762.748,7320.972,-6505.172,-3074.755,-25514.523,2938.9978,-5110.156,-950.66223,-3246.877,-5171.789,2308.3843,-29296.7,-34464.12,-24679.467,-6950.134,-1605.3278,-29352.32,-1636.896,-29869.438,-36144.004,-32827.836,-33801.94,-36269.527,-33657.63,-29555.26,-29580.814,-32673.752,-32090.49,-30172.344,-33891.383
186,0.744,306.744,-17401.48,-29627.416,-19228.682,-9179.454,-22249.463,-20406.479,-18262.092,6688.8555,-13118.721,3553.8271,-905.56476,-26302.977,-16537.863,-12001.807,-23640.72,-18077.943,532.29407,-6307.4946,-7970.0894,-1230.2668,-19966.025,9285.72,-30186.625,1753.6849,-32886.46,-15672.743,-150.18152,9312.778,-981.4789,-20762.748,7317.214,-6502.917,-3077.0098,-25511.516,2938.246,-5110.156,-950.66223,-3245.3738,-5173.292,2310.6392,-29298.955,-34458.86,-24678.715,-6951.637,-1604.576,-29353.824,-1636.1444,-29870.941,-36145.508,-32826.332,-33801.188,-36267.27,-33657.63,-29556.01,-29581.566,-32673.752,-32090.49,-30172.344,-33892.887
187,0.748,306.748,-17417.266,-29648.46,-19246.72,-9189.225,-22256.979,-20423.766,-18266.602,6684.3457,-13124.734,3550.8206,-911.57776,-26311.244,-16547.635,-12004.062,-23651.244,-18080.2,530.0392,-6311.2524,-7971.5923,-1234.7765,-19969.033,9280.459,-30195.645,1746.1687,-32894.73,-15676.501,-153.18802,9312.027,-982.9821,-20765.756,7312.704,-6506.6753,-3083.7744,-25518.281,2937.4944,-5111.6587,-952.1655,-3248.3801,-5176.299,2306.1294,-29304.969,-34467.88,-24680.219,-6952.3887,-1606.8309,-29360.588,-1638.3992,-29874.7,-36151.52,-32826.332,-33801.94,-36268.023,-33663.64,-29556.01,-29583.068,-32673.752,-32090.49,-30174.598,-33892.137
