sample_in_window,time_seconds_in_window,absolute_time_seconds_in_recording,prob_Fpz,prob_Fp1,prob_Fp2,prob_AF3,prob_AF4,prob_AF7,prob_AF8,prob_Fz,prob_F1,prob_F2,prob_F3,prob_F4,prob_F5,prob_F6,prob_F7,prob_F8,prob_FCz,prob_FC1,prob_FC2,prob_FC3,prob_FC4,prob_FC5,prob_FC6,prob_FT7,prob_FT8,prob_Cz,prob_C1,prob_C2,prob_C3,prob_C4,prob_C5,prob_C6,prob_T7,prob_T8,prob_CP1,prob_CP2,prob_CP3,prob_CP4,prob_CP5,prob_CP6,prob_TP7,prob_TP8,prob_Pz,prob_P3,prob_P4,prob_P5,prob_P6,prob_P7,prob_P8,prob_POz,prob_PO3,prob_PO4,prob_PO5,prob_PO6,prob_PO7,prob_PO8,prob_Oz,prob_O1,prob_O2
0,0.0,306.0,0.031798206,0.66182685,0.63700056,0.010600204,0.0033445307,0.0073319874,0.024540307,0.09471249,0.005619789,0.011186387,0.23651642,0.20316432,0.010383546,0.010898832,0.19995363,0.45291573,0.063248515,0.0037831152,0.012411324,0.04930096,0.021793779,0.004741101,0.0077933944,0.04868398,0.11535495,0.012569309,0.0061826007,0.017653301,0.040817283,0.03125105,0.018422795,0.023624958,0.08568161,0.08846642,0.02751366,0.016897192,0.017284343,0.010567388,0.004986908,0.008267421,0.03416159,0.028685102,0.009781632,0.010431285,0.021822158,0.02998467,0.013509647,0.008581898,0.023957161,0.030407172,0.019291118,0.005648919,0.014763107,0.021716157,0.008863917,0.011189759,0.010434273,0.018593788,0.023714341
1,0.004,306.004,0.017454134,0.74071974,0.7669625,0.007640908,0.0015244314,0.004728304,0.013351284,0.07013054,0.0029611504,0.005095047,0.1971871,0.14777142,0.0040391325,0.004768295,0.17563519,0.51897806,0.037461843,0.0014756162,0.0059054815,0.025542963,0.007803872,0.0016585268,0.0039710794,0.029613947,0.082071036,0.0060251663,0.0028283643,0.009173353,0.022531321,0.013550092,0.00973644,0.011881845,0.07544913,0.097093284,0.021383028,0.008887142,0.010047146,0.0070894733,0.0031901926,0.004941499,0.024160203,0.01324436,0.0056795776,0.007361845,0.015434795,0.019944955,0.0066313716,0.0053748493,0.017234424,0.015721356,0.00985939,0.0023816219,0.0056118537,0.010458486,0.0047997525,0.00681024,0.005264674,0.013360703,0.018636871
2,0.008,306.008,0.010226878,0.7555735,0.8235356,0.006113804,0.0009003969,0.0025550604,0.007473394,0.10893926,0.0018688267,0.0024941012,0.1835787,0.1306309,0.002584497,0.0026900377,0.20238607,0.58490276,0.027034927,0.0006332826,0.0032065546,0.011524212,0.003593734,0.0008508911,0.0022743563,0.02010257,0.05162217,0.0036491046,0.001697101,0.0050991527,0.0109769525,0.006999406,0.007434229,0.0068184887,0.06446253,0.10816103,0.016483158,0.004769479,0.006494777,0.005977924,0.0023856165,0.0034739177,0.018788029,0.008870873,0.0037176674,0.0067775273,0.016965417,0.016139185,0.0046432475,0.003841429,0.012505866,0.009933642,0.0066228895,0.001565859,0.0031351757,0.0059852325,0.0023324369,0.004148544,0.002884402,0.007790099,0.0149192745
3,0.012,306.012,0.009133121,0.8277759,0.8678168,0.0045003747,0.0006757041,0.0015759794,0.004507175,0.1707419,0.0010931372,0.0014824247,0.259995,0.16765745,0.0014085082,0.0015074407,0.26899317,0.69346184,0.024869813,0.00023660639,0.0023951137,0.0062619606,0.0017150849,0.00039024322,0.0014681498,0.0151041625,0.04778308,0.0022339171,0.0008684682,0.0033543874,0.005994099,0.0045161247,0.004366441,0.0034406453,0.063182175,0.1618608,0.014356882,0.0024013345,0.00397664,0.0039050295,0.001579536,0.0028132093,0.016773509,0.0063921595,0.0027982353,0.007739195,0.01667887,0.013280529,0.0043166056,0.0026563434,0.00935711,0.011132182,0.009911236,0.0017446779,0.0033371225,0.0049767015,0.0015645743,0.0038931393,0.0021006134,0.0046283538,0.011486705
4,0.016,306.016,0.004443262,0.87213445,0.89972,0.003133726,0.00035877476,0.0017564353,0.004708665,0.26173365,0.00046155305,0.0008653129,0.6056487,0.25149778,0.00115342,0.00097671,0.46106485,0.898444,0.067639105,9.0200796e-05,0.002174181,0.0063428096,0.0011263588,0.00025501638,0.0015562715,0.016425474,0.06557984,0.0016837479,0.0006130137,0.0047739763,0.009877207,0.0050724824,0.0037304976,0.0021590197,0.097114325,0.3184866,0.015792519,0.0013401583,0.0024736454,0.0025381213,0.0012890821,0.002279759,0.018004993,0.0055413335,0.0037573501,0.012626055,0.019548856,0.017188402,0.0065398505,0.0033358955,0.010118971,0.016969005,0.029620202,0.0074190055,0.008759984,0.00950007,0.0020297156,0.0056833248,0.0018022156,0.0033076417,0.009229549
5,0.02,306.02,0.0033395467,0.8749135,0.9143142,0.0025849456,0.00024098957,0.0016580146,0.004038772,0.33049297,0.00024218459,0.0006381971,0.59732354,0.20868324,0.0010594951,0.00074829353,0.5074471,0.9161926,0.111597046,5.842884e-05,0.0015481287,0.004616618,0.00079865614,0.00019066132,0.000904707,0.012617646,0.044783246,0.0021218501,0.00047534998,0.004459567,0.010890852,0.0047850036,0.004163345,0.0019647465,0.11507668,0.36729643,0.016729778,0.0013441894,0.00243882,0.0022674075,0.001139668,0.001961839,0.020693464,0.007221959,0.0051280307,0.014227929,0.022481555,0.02484401,0.009925705,0.0037829678,0.012212016,0.020890296,0.036315255,0.011303086,0.009853829,0.01060297,0.0024194506,0.0054123336,0.0019014368,0.0037098976,0.0098432405
6,0.024,306.024,0.0023562752,0.8643404,0.91812974,0.0026464853,0.00016915136,0.0012955737,0.0035338402,0.3799468,0.00013852447,0.00043488227,0.5490746,0.17739421,0.00082514784,0.00047246044,0.5597324,0.9223432,0.11479607,3.8282702e-05,0.0012872601,0.0039873533,0.0006909898,0.00014326382,0.00059013895,0.014136117,0.037246816,0.0029360221,0.0003549564,0.0034163746,0.010672304,0.005189922,0.004961539,0.0019989137,0.11401119,0.3912065,0.021105045,0.0013465643,0.0022518258,0.0018974891,0.0010321066,0.0018388701,0.021282729,0.009213561,0.005797432,0.01333463,0.02590521,0.02987273,0.01183524,0.0047598574,0.014433147,0.018986512,0.026328703,0.010860029,0.008248302,0.0084541645,0.001972451,0.004375034,0.0015742749,0.003091011,0.00825437
7,0.028,306.028,0.0020020306,0.8602728,0.9173177,0.002895386,0.0001569593,0.0010647684,0.0035656334,0.40752885,9.962205e-05,0.00035259334,0.43957028,0.13807175,0.0006173866,0.0004192001,0.6395637,0.91808754,0.08897014,2.7910017e-05,0.0012487915,0.0030590931,0.0006137278,0.00011475772,0.0005930634,0.019333338,0.036229536,0.0032029143,0.00030299334,0.0032963224,0.009038729,0.005360262,0.0038390225,0.001722504,0.11656919,0.41257596,0.024295786,0.00097131194,0.0021432105,0.0019057284,0.0010888505,0.0018991604,0.01769379,0.0078608375,0.005660303,0.0141006345,0.020618554,0.020999817,0.009520633,0.0049911756,0.0126560265,0.010055141,0.012915055,0.007602181,0.005002365,0.0055823335,0.0012388604,0.0029641136,0.0011493608,0.0026482064,0.007820557
8,0.032,306.032,0.0020446319,0.8583316,0.9132406,0.0032131425,0.00016289492,0.0008653557,0.0034783876,0.4214355,9.4311414e-05,0.00035228007,0.32324493,0.10679848,0.0004649927,0.00047020998,0.7062844,0.9068879,0.056298725,2.1418644e-05,0.0011944335,0.001954368,0.0004831246,9.1576825e-05,0.00075684674,0.023929903,0.03593623,0.0032021273,0.00028698018,0.0038751701,0.0071284855,0.004624224,0.0024880287,0.0014222425,0.1130586,0.40341505,0.020462045,0.00058397214,0.0021168503,0.0019852293,0.0010533896,0.0016959315,0.012297902,0.005386493,0.0042285244,0.011445348,0.012488717,0.009697595,0.0052771093,0.003947572,0.008827899,0.004289161,0.005581833,0.005484466,0.003326463,0.0038487983,0.0008213178,0.002363856,0.0009746695,0.0027014767,0.0078287
9,0.036,306.036,0.0020723457,0.85992104,0.9125797,0.0032175118,0.00017420863,0.0007854212,0.0032697625,0.43534964,0.00010132667,0.00032720945,0.22954577,0.08003252,0.0003692922,0.00050345913,0.6973344,0.8899173,0.036275703,1.7690521e-05,0.0009770017,0.0011370985,0.00032537873,7.759107e-05,0.00082002894,0.02266575,0.03095999,0.0031278774,0.0003194234,0.0042733406,0.005853747,0.003911729,0.002227014,0.0013847181,0.08727957,0.35550228,0.018804282,0.00048898126,0.0019721857,0.0020030043,0.00093164394,0.0014098716,0.009235137,0.0042148894,0.0030377414,0.008703741,0.010768184,0.006237546,0.003693539,0.0035206154,0.0079131555,0.0029379493,0.0036198688,0.0048833964,0.00276155,0.0034970483,0.00079228467,0.0023235749,0.0009015791,0.0025722648,0.007859498
10,0.04,306.04,0.001999102,0.8575655,0.9148821,0.0034782307,0.00018168919,0.0007816685,0.0032470608,0.44994104,0.00010488807,0.00026182685,0.14903153,0.053804502,0.0003055056,0.000498438,0.6314886,0.8751934,0.025558287,1.6294125e-05,0.0007581912,0.0006574453,0.00021407219,7.096125e-05,0.00075038866,0.017343234,0.022850877,0.0031922173,0.00037605845,0.0037135775,0.00479324,0.0036814932,0.002341529,0.0015273737,0.061081175,0.30645317,0.019314973,0.00048506266,0.002098261,0.002055742,0.0007941801,0.0013803067,0.007988006,0.003436157,0.002451437,0.0093588345,0.012966675,0.005580542,0.0037036494,0.0042269886,0.008904842,0.0025316698,0.0029628978,0.0044756634,0.002430818,0.003500109,0.000842393,0.0022821603,0.0008792727,0.0026431219,0.008440785
11,0.044,306.044,0.002018766,0.8471593,0.915677,0.004602369,0.00020897671,0.00090513984,0.0035333738,0.50974834,0.00010795976,0.0002546369,0.1140223,0.04130927,0.00030292777,0.00052186084,0.5988818,0.87563074,0.023353333,1.7600376e-05,0.00062659325,0.00047337284,0.00016415713,7.087847e-05,0.00078572286,0.014957276,0.018059324,0.0034075477,0.00042987528,0.0040542954,0.0050187274,0.003898326,0.00222441,0.001757065,0.06320855,0.32047418,0.0244511,0.0006105402,0.002628457,0.0024238268,0.0009009457,0.0019156702,0.009520309,0.003835574,0.0033317127,0.0155217,0.01911229,0.0074432734,0.0056005665,0.006374078,0.01179581,0.002818451,0.0037595853,0.005412167,0.0027490477,0.004064343,0.001023486,0.0023917651,0.0009889591,0.0036827214,0.009949853
12,0.048,306.048,0.0019462549,0.83119255,0.91347945,0.006229476,0.00024115876,0.0010822327,0.00378988,0.5832513,0.00012767709,0.00030762603,0.11469921,0.0412091,0.00035358703,0.00056194,0.5777209,0.877285,0.0251998,2.0903606e-05,0.00053536706,0.00037902416,0.00013402147,7.643726e-05,0.0009562283,0.0131811565,0.01402525,0.0037825832,0.0005343011,0.0054036644,0.0059521636,0.0044210386,0.002075088,0.002067849,0.075817555,0.3548921,0.035890438,0.00081360806,0.0036034696,0.0033372147,0.001311932,0.003205889,0.013559496,0.0053220154,0.006367778,0.034296237,0.037221313,0.014489506,0.011090825,0.010896278,0.016417032,0.0037290587,0.006293369,0.007202153,0.003196917,0.005148745,0.001314774,0.0026169939,0.0011575988,0.0049774405,0.011532068
13,0.052,306.052,0.0017514452,0.81296724,0.91027445,0.0067611537,0.00020435273,0.0009200791,0.0034005935,0.59173375,0.00015140271,0.00030426992,0.10401925,0.04205799,0.0003505348,0.00053899956,0.57494646,0.87304294,0.021749714,2.432287e-05,0.0004454122,0.00028197063,0.00010497733,8.617847e-05,0.0011450137,0.012562109,0.0119325835,0.0042425236,0.00066920824,0.0061111734,0.0062067667,0.0048593516,0.0021097017,0.0023027414,0.07766217,0.35197023,0.03983234,0.00093735574,0.004136513,0.003906339,0.0016601399,0.0040081986,0.014728932,0.006501759,0.00832687,0.04750495,0.054441806,0.020367613,0.01555315,0.0150824785,0.0189815,0.0036329287,0.007251599,0.007933136,0.003386225,0.005348172,0.0014270955,0.0027117545,0.0012546125,0.0058700196,0.011838849
14,0.056,306.056,0.0015920738,0.78784734,0.90649104,0.0061372253,0.00012874855,0.00059409166,0.0026472895,0.5356986,0.0001569418,0.0002502984,0.07669962,0.03980847,0.0003078936,0.0004984,0.6244368,0.8708212,0.015486547,2.7499083e-05,0.00037499145,0.00021400055,8.297511e-05,8.45033e-05,0.0012550952,0.012999128,0.011019347,0.0050074942,0.00073639135,0.0055417414,0.005835331,0.0055734916,0.002306177,0.002318329,0.073764704,0.32333857,0.03816531,0.00094374653,0.0039839176,0.0040881513,0.001814994,0.004276462,0.013401061,0.006290498,0.007721248,0.04254811,0.06321581,0.019776354,0.015943935,0.016334856,0.017460555,0.0025734908,0.0057656644,0.006588064,0.0029024028,0.0046327407,0.0013716546,0.0024258085,0.0012310223,0.005025471,0.011348578
15,0.06,306.06,0.0013283037,0.76365495,0.8974584,0.0055642654,7.855459e-05,0.00035473786,0.001977199,0.5139668,0.000129382,0.00020383763,0.06827689,0.044233933,0.00026068056,0.0004630666,0.710459,0.87507063,0.011820994,2.6095555e-05,0.0003193071,0.00017896907,6.9340625e-05,6.5654254e-05,0.0012381803,0.013931283,0.009280307,0.0054059387,0.00073393993,0.0058708964,0.0061832517,0.0063060885,0.0023563113,0.0023513788,0.08829751,0.30826214,0.035789143,0.00097302167,0.0037173775,0.0043585873,0.0018065762,0.0038064031,0.010670834,0.0055627036,0.0059249126,0.0308746,0.056112465,0.01510949,0.013660067,0.016223384,0.016658602,0.0019959935,0.0040218458,0.0055023967,0.0026380308,0.0041209636,0.0014398216,0.0024914178,0.001230928,0.004867713,0.010692285
16,0.064,306.064,0.0011633803,0.7410875,0.89129674,0.0049386276,4.7853653e-05,0.00021270676,0.0014750838,0.5602264,9.173258e-05,0.00016389374,0.08242199,0.05886849,0.00022866491,0.00044511782,0.78508806,0.880354,0.011100825,2.2857494e-05,0.00027381067,0.00017421045,6.1907405e-05,4.7988007e-05,0.0011457206,0.015389904,0.0069643725,0.0058464757,0.0008316094,0.0065633664,0.006939114,0.007827286,0.002513489,0.0024594658,0.10923873,0.29844278,0.032857977,0.000909406,0.0036895631,0.0047179707,0.0015004434,0.002939616,0.00780932,0.004367322,0.0043033785,0.018527722,0.042413123,0.009769542,0.009825531,0.013408465,0.0139432885,0.0015589946,0.002765103,0.004676961,0.002432377,0.0039037073,0.0015673141,0.0027336732,0.001208807,0.005083798,0.010641817
17,0.068,306.068,0.000971342,0.716806,0.88368666,0.0043823197,3.24732e-05,0.00014464595,0.0011448888,0.5936062,7.5016294e-05,0.00013635335,0.09330169,0.06460379,0.0001987845,0.00041678382,0.8130305,0.88163036,0.0094924355,2.0082218e-05,0.00024791292,0.00018417156,5.898633e-05,4.073682e-05,0.0010792356,0.018964535,0.0066689528,0.00765953,0.0011400323,0.008105349,0.008965554,0.011616798,0.0032422077,0.0027039521,0.1308311,0.31241015,0.03475679,0.00083314494,0.0036068351,0.004693271,0.001288283,0.0023947523,0.0058801738,0.003459081,0.003229714,0.0130848605,0.034409884,0.00676174,0.007975591,0.011228837,0.011799491,0.0012790089,0.0022331646,0.0042334343,0.0024269314,0.0039772214,0.0017130752,0.0028940164,0.0013839778,0.0050981664,0.010830841
18,0.072,306.072,0.0008129571,0.69293153,0.87344974,0.0039781244,2.4096888e-05,0.000112984366,0.0009832166,0.5651104,5.8134887e-05,0.00012662336,0.08382926,0.05146366,0.00017281427,0.0003521053,0.821171,0.8846141,0.008542481,1.8255185e-05,0.00022374743,0.00020150404,5.7324094e-05,3.855334e-05,0.0010535797,0.02693549,0.008009546,0.010594733,0.001726819,0.01006928,0.012253146,0.019309228,0.0043789884,0.0031295726,0.15498103,0.35090005,0.04294635,0.00072734756,0.0032716526,0.00445491,0.0011846635,0.0020721024,0.004755683,0.0027769436,0.0024500755,0.010885885,0.030086441,0.0051702955,0.0067050983,0.011335745,0.01108315,0.0011520052,0.0020287132,0.003668061,0.0027182682,0.0042990264,0.001684139,0.0029937623,0.001583934,0.006058297,0.01013178
19,0.076,306.076,0.000726877,0.6828082,0.8678205,0.0032781214,1.5929312e-05,8.8106855e-05,0.00085763383,0.5226202,4.022935e-05,0.00010607627,0.0711871,0.042244114,0.00015706096,0.00028299593,0.82942003,0.8920869,0.0076582897,1.5601445e-05,0.00020062276,0.00020002453,4.888542e-05,3.45277e-05,0.0010500536,0.034421306,0.0088383565,0.013851821,0.0022459358,0.012975405,0.016518282,0.029126449,0.0058328365,0.0031360209,0.18664235,0.40999535,0.048124984,0.00060931017,0.0032062102,0.004150883,0.0010288311,0.0017536592,0.004006505,0.0024320555,0.0019058099,0.009604452,0.028800886,0.0046198466,0.0064916206,0.0107474895,0.0105203865,0.0011646892,0.0022746106,0.0034135834,0.0028139679,0.004512855,0.0017849478,0.003116586,0.0017810167,0.0060451664,0.010382811
20,0.08,306.08,0.00062234915,0.67577255,0.856424,0.002925189,1.1862762e-05,7.228977e-05,0.00073213136,0.50017405,2.77834e-05,8.707465e-05,0.06158459,0.038467046,0.00014185229,0.00022937656,0.84037304,0.9012963,0.0065633287,1.3382325e-05,0.00018411501,0.00020021592,4.1639883e-05,3.0127047e-05,0.0010747781,0.039256614,0.008647762,0.014534187,0.00282665,0.016962133,0.022222143,0.042890165,0.0069970665,0.0027956087,0.22646923,0.47827005,0.050888076,0.0005306668,0.0035322825,0.0045792214,0.00091823126,0.0015303997,0.0038208358,0.0022686936,0.001656492,0.010180565,0.03499767,0.004934997,0.0063782013,0.010914897,0.010486953,0.0012724034,0.0031475304,0.0036982922,0.003006179,0.00485313,0.0020964604,0.0035911105,0.0019691666,0.006244451,0.009875649
21,0.084,306.084,0.00056906143,0.6943596,0.8594584,0.0026837334,1.0004911e-05,6.492302e-05,0.00068402436,0.5169942,2.3055576e-05,7.3042436e-05,0.065949604,0.042243164,0.00014213676,0.00020469438,0.86183107,0.91392064,0.0055941963,1.1784048e-05,0.00017981956,0.0002224066,3.9220275e-05,2.7430959e-05,0.001117682,0.04729644,0.009874912,0.016062206,0.0036040773,0.020488417,0.029729525,0.064607434,0.007852794,0.0026488688,0.29292047,0.53227186,0.05000972,0.00039749875,0.003935579,0.005287886,0.00085081614,0.0013968698,0.0037439673,0.0021850273,0.0014112788,0.010543567,0.043122534,0.005113783,0.0061054765,0.011369521,0.010244042,0.001319137,0.0039337105,0.0038235337,0.0031120116,0.005378054,0.0024577372,0.004170199,0.0021220744,0.0068399804,0.01082942
22,0.088,306.088,0.0005894425,0.7355776,0.8741528,0.0026381211,9.676052e-06,6.588921e-05,0.00068159227,0.56873375,2.2286189e-05,6.402366e-05,0.093124814,0.05861311,0.0001595432,0.00018807947,0.88357174,0.9238201,0.0049567576,1.1492866e-05,0.00018592343,0.0002693664,4.3445678e-05,2.531152e-05,0.0010841665,0.05745855,0.011540115,0.020437606,0.004420256,0.02328957,0.038434707,0.09469278,0.008062228,0.0024550906,0.37505278,0.58013207,0.04628768,0.00027627457,0.0039606597,0.005746371,0.00078942394,0.0012819817,0.0037818647,0.0020501884,0.0011518921,0.011650798,0.052137084,0.0047695264,0.005722173,0.011606171,0.010482486,0.0013404301,0.004486704,0.0041344077,0.0033891858,0.006007934,0.0030233862,0.005165074,0.0027166735,0.008051869,0.012499248
23,0.092,306.092,0.0006638931,0.78199506,0.88984007,0.0025908733,9.558199e-06,7.040739e-05,0.00066445547,0.6204856,2.5161728e-05,6.218899e-05,0.16595364,0.09776029,0.00018936844,0.00018872404,0.89695996,0.92993575,0.004622709,1.1124695e-05,0.00019354782,0.00034892178,4.9708233e-05,2.3619737e-05,0.0010436086,0.061411023,0.012735112,0.025397304,0.0047279317,0.023324132,0.04991872,0.123933874,0.0070036794,0.0021015082,0.49382952,0.63492626,0.03652833,0.000172389,0.0038016057,0.006266653,0.0006680978,0.0009938532,0.0034958639,0.0019357235,0.0009042753,0.010788267,0.051658653,0.0037363004,0.0046205837,0.011462809,0.010765919,0.0013343635,0.004282192,0.0039556064,0.0034752437,0.006441178,0.0033014272,0.0061981454,0.002883948,0.008311619,0.0152019495
24,0.096,306.096,0.00071708777,0.82233137,0.90281963,0.0023853795,8.701909e-06,7.366401e-05,0.00060158933,0.66445243,2.6125408e-05,6.33777e-05,0.30617654,0.1723493,0.00023533119,0.00017368418,0.90826017,0.93412876,0.004371212,1.047335e-05,0.00019079553,0.00045383954,6.332762e-05,2.2623175e-05,0.0009923384,0.06661448,0.0153150465,0.0314395,0.004322594,0.02164233,0.06698714,0.1604663,0.0058633005,0.0016282651,0.61587894,0.6937092,0.026388668,0.000110243884,0.0034861432,0.006464669,0.0004976464,0.000672689,0.0029512192,0.0016994536,0.00071760116,0.008734202,0.03955903,0.002649921,0.003256496,0.010021132,0.009901873,0.0012276728,0.0040284446,0.0035463602,0.0032806587,0.006119619,0.0035661112,0.006595852,0.0028207614,0.008584028,0.016330468
25,0.1,306.1,0.00080064766,0.8442128,0.911476,0.0023761494,8.647071e-06,7.798235e-05,0.00055564387,0.6876919,2.8367267e-05,6.7321875e-05,0.44989076,0.24951902,0.00025839536,0.00014263246,0.918492,0.9374024,0.003734872,9.085863e-06,0.0001858295,0.0005084126,7.627481e-05,2.189904e-05,0.000997149,0.07847604,0.020357572,0.042780243,0.0036423358,0.018712414,0.07954554,0.19549945,0.005380784,0.0012987803,0.68715566,0.7307329,0.020019133,7.140131e-05,0.0028072004,0.0056858803,0.00036850356,0.0004519295,0.002235496,0.0014248568,0.00049871247,0.005531717,0.02725238,0.001860907,0.0021851999,0.0077903196,0.008781511,0.0010715879,0.0037137326,0.0031226003,0.0029737358,0.0059220265,0.0034932238,0.0065541943,0.0028460473,0.00892401,0.018883595
26,0.104,306.104,0.0008660462,0.8595367,0.91661906,0.0024463956,9.9022145e-06,8.879503e-05,0.0005391311,0.69485325,3.172159e-05,7.4457326e-05,0.56831175,0.31820112,0.0002601981,0.000118447286,0.92362326,0.9398124,0.0028323114,8.476184e-06,0.00017778072,0.0005359575,9.211187e-05,2.1551805e-05,0.0010602706,0.08387657,0.024323795,0.054206397,0.0033122557,0.015300354,0.09161861,0.22501819,0.004677345,0.0011631543,0.7084232,0.7355616,0.015375177,5.227016e-05,0.0020627514,0.0042749415,0.00024887064,0.00030823404,0.0016554608,0.0011382349,0.0003165863,0.0034982269,0.018930834,0.0013329599,0.0014726501,0.0064692767,0.007555332,0.0009240373,0.0034786058,0.0028476054,0.0029295732,0.0055188495,0.0031935591,0.0061286916,0.00273958,0.008854328,0.019982785
27,0.108,306.108,0.0009165075,0.87130505,0.922415,0.0023470349,9.77e-06,8.8329114e-05,0.0004522926,0.6972342,3.7470883e-05,7.876965e-05,0.6630859,0.41492257,0.00026887015,0.000105209125,0.930054,0.94498914,0.0021041506,7.810151e-06,0.00018358456,0.00058563426,0.00010449534,2.0400328e-05,0.0011081299,0.082854755,0.02690507,0.05822236,0.00311982,0.013617729,0.10744418,0.25979733,0.0036979867,0.00092172826,0.72165716,0.73334867,0.009788802,3.7102756e-05,0.0017046275,0.0031071454,0.00017208929,0.00023434307,0.0013399816,0.0010023138,0.00022612889,0.0023651246,0.014331808,0.0012256685,0.0012833818,0.0052214307,0.0067475294,0.0008646539,0.0035985832,0.0027599495,0.0028980523,0.0056794565,0.0030037733,0.005844758,0.0024605526,0.007873335,0.01946677
28,0.112,306.112,0.0009368352,0.8866064,0.9297124,0.002041717,8.24761e-06,7.407525e-05,0.00034329147,0.71298826,4.243218e-05,7.390965e-05,0.74679846,0.5264146,0.0002595118,0.00010325797,0.93619305,0.95119643,0.001641143,7.76627e-06,0.0001942539,0.0006882364,0.000118238866,1.720635e-05,0.0011400633,0.07903532,0.02909407,0.059377365,0.0025492834,0.012484849,0.12914059,0.27942076,0.0028171004,0.000743553,0.7459112,0.73538786,0.0059343004,2.5900805e-05,0.0015103942,0.0024925973,0.00012551117,0.00019465253,0.0012295195,0.0009288671,0.0001950014,0.0019399566,0.011331674,0.0012652858,0.0013142877,0.0044780057,0.0064046346,0.00090027857,0.004014857,0.0028500936,0.002993546,0.0058843256,0.0029057802,0.0057614376,0.0021939103,0.0065719965,0.017764475
29,0.116,306.116,0.0010536842,0.9007905,0.93699205,0.0018524218,7.64707e-06,6.65088e-05,0.00026321047,0.73855054,4.624142e-05,7.438706e-05,0.80065936,0.6240067,0.00026776528,0.00010212997,0.9396174,0.95412177,0.0012110464,7.5288804e-06,0.0002006924,0.0008181168,0.00014715143,1.4732137e-05,0.0012782533,0.07495282,0.029986171,0.06497038,0.0019446395,0.011053281,0.15460402,0.29389548,0.002119259,0.00064805505,0.7694056,0.73350203,0.003526668,2.3781433e-05,0.0012256147,0.0018368887,9.544039e-05,0.00016000192,0.0011291611,0.0009051856,0.00019152899,0.0016387884,0.008965938,0.0012220471,0.001291783,0.003759496,0.0065809623,0.0010342096,0.0043297377,0.0030248296,0.0033719542,0.006230775,0.0028850948,0.005633686,0.002221659,0.006199638,0.015624672
30,0.12,306.12,0.0012705668,0.91361475,0.9426988,0.0017344541,8.132663e-06,7.132475e-05,0.00021856232,0.76223725,5.3422154e-05,7.6882825e-05,0.8298854,0.6866325,0.00027665094,9.8591474e-05,0.9408224,0.95526534,0.00092411175,7.018494e-06,0.00019604914,0.00092787103,0.00018804899,1.34515985e-05,0.0016450759,0.072750956,0.033763472,0.07823773,0.0013939177,0.0090670725,0.18103433,0.306401,0.001624333,0.0005818002,0.80662686,0.7301139,0.0020489702,2.1397636e-05,0.0010218269,0.001425824,7.316995e-05,0.00013736983,0.0010109445,0.00085426867,0.00018298303,0.0013284999,0.00783006,0.0012236463,0.0013184607,0.0032965748,0.0070819994,0.0012023303,0.0043249098,0.0030953693,0.0036912798,0.0064918613,0.0025160427,0.004987222,0.0021886274,0.0060633007,0.015037311
31,0.124,306.124,0.0014918204,0.9228198,0.9453802,0.001643479,8.737641e-06,8.224322e-05,0.00019276033,0.78005886,5.876938e-05,8.7908964e-05,0.84697807,0.7233892,0.00027753544,0.000101952966,0.9417236,0.95600617,0.00065550045,6.306739e-06,0.0002017713,0.0011367432,0.00024076564,1.1890772e-05,0.0021063546,0.07223519,0.04470673,0.09072208,0.0009382582,0.00769449,0.2068268,0.30796206,0.0013107393,0.0005113612,0.83708733,0.7297527,0.0012163358,1.9882567e-05,0.00084893935,0.0011427025,5.689082e-05,0.00010821898,0.0008923511,0.0008227434,0.00015803879,0.0011011767,0.0069770245,0.0011079673,0.0011095639,0.0029410867,0.0073497565,0.0012190546,0.0036313203,0.002937213,0.0040327,0.0063970983,0.0021113348,0.003938659,0.0019292616,0.005911307,0.013586732
32,0.128,306.128,0.0016636399,0.9309507,0.9496382,0.0014546993,9.37071e-06,8.705548e-05,0.00017130312,0.79860145,6.617843e-05,8.637938e-05,0.86079365,0.7549415,0.00027587687,0.00011173957,0.9447438,0.95652175,0.00045416437,6.143882e-06,0.00021986551,0.0013406179,0.00030585733,1.1272306e-05,0.002702614,0.07435377,0.059774417,0.09792061,0.00089615176,0.007606525,0.22368972,0.30758765,0.0011900432,0.00052594114,0.85415876,0.72725224,0.0008205171,1.9071922e-05,0.0007599258,0.0009383328,3.8776157e-05,7.851505e-05,0.00073366513,0.0007801452,0.00013559537,0.00085710856,0.006042354,0.0010173353,0.00090078946,0.0024572439,0.006630479,0.0010637242,0.003180799,0.0026154548,0.0037159456,0.0062042903,0.0018032187,0.0029444376,0.0016149723,0.0053823283,0.012551993
33,0.132,306.132,0.0018910851,0.9386274,0.95436406,0.0014341138,1.164434e-05,0.0001062277,0.00017333658,0.8212443,8.032342e-05,9.987802e-05,0.87299544,0.784131,0.00030618208,0.00012707357,0.9484722,0.95744246,0.0003080378,6.613515e-06,0.00024518732,0.0015752856,0.0003716217,1.159619e-05,0.0035428484,0.06908523,0.065236986,0.09628633,0.00092687487,0.007602487,0.24165276,0.29136723,0.0010717309,0.0006174339,0.8596203,0.7006004,0.00062063197,2.1218451e-05,0.00071493525,0.00074803265,2.7632865e-05,6.221242e-05,0.0006778292,0.0008243596,0.00011813202,0.0007711345,0.005596231,0.0009909217,0.0007729414,0.0022231636,0.006134509,0.0009802207,0.0029929357,0.0024296239,0.003531356,0.0058987252,0.0014987455,0.0024191202,0.0013843265,0.004867759,0.010673377
34,0.136,306.136,0.0023472903,0.94760686,0.96042705,0.0016308926,1.5008293e-05,0.0001392639,0.00018382593,0.84656256,9.3195864e-05,0.00011816379,0.88913816,0.8259712,0.00036872493,0.00014119415,0.95365113,0.9601755,0.00023688178,6.4961405e-06,0.00026545065,0.0017825689,0.00039061002,1.16073315e-05,0.0041309106,0.060099628,0.068594575,0.08963621,0.0008071747,0.0062023355,0.24261428,0.26444036,0.0008767946,0.0006986723,0.8663866,0.6788441,0.00042703384,2.3997498e-05,0.0007241312,0.0005641271,2.2823448e-05,5.775725e-05,0.00075041695,0.0009280917,0.00010454508,0.00069318974,0.004707519,0.0009284101,0.00069985783,0.0020247637,0.0061124074,0.0010867438,0.0029234805,0.0022691535,0.0033968156,0.0053238105,0.0012165832,0.0019695417,0.0012225402,0.0045310184,0.009282254
35,0.14,306.14,0.0027567032,0.9542663,0.96413857,0.0016932436,1.6044587e-05,0.00015163243,0.00017416662,0.8566792,9.58756e-05,0.000108702276,0.9023723,0.85832477,0.00036949592,0.00014475234,0.9579293,0.9622952,0.00016013456,5.7915936e-06,0.00027807947,0.002047174,0.0004106774,1.1371891e-05,0.0043879743,0.056774396,0.083248116,0.08245015,0.00055625243,0.004664972,0.23600428,0.23124039,0.0006992259,0.0006426475,0.8818378,0.66824174,0.0002485849,2.4961946e-05,0.00070921914,0.00039205205,2.1851767e-05,5.6635057e-05,0.0009145401,0.0011013006,9.621383e-05,0.0006982064,0.0041108313,0.0008963716,0.0006117824,0.0020296392,0.00662716,0.0012769877,0.0033002729,0.0023692902,0.003318661,0.004840257,0.001059585,0.0017958636,0.0011253887,0.003979916,0.008744417
36,0.144,306.144,0.002964346,0.95868653,0.9654911,0.0017463786,1.3524428e-05,0.00014069957,0.0001489566,0.8398662,8.833273e-05,8.166537e-05,0.90648425,0.87121546,0.0003529051,0.00014415961,0.95961225,0.9618421,0.00010531592,5.299529e-06,0.0002850898,0.0023536594,0.00044184263,1.1288594e-05,0.0044056354,0.05947243,0.11416718,0.081890024,0.00036827405,0.0035950148,0.21780853,0.2028333,0.0005346944,0.0005791324,0.89423674,0.6342545,0.000159353,2.6830492e-05,0.0007881822,0.000297729,1.9963734e-05,5.310216e-05,0.0010810863,0.0012638067,9.194565e-05,0.0007878634,0.0042718635,0.00097029493,0.0005342461,0.0022844698,0.008851801,0.001710598,0.004477695,0.0029884796,0.0036732403,0.004857597,0.0012081595,0.0021228478,0.0011377865,0.0038368222,0.007884499
37,0.148,306.148,0.0035582343,0.96005607,0.9651675,0.0018238723,1.7522416e-05,0.00016749807,0.00015271867,0.83880496,0.000104279534,8.0884136e-05,0.90518194,0.87449765,0.00038611182,0.00016917863,0.9594125,0.9606435,7.73624e-05,5.2638825e-06,0.00031789922,0.0027448195,0.00052017334,1.1880605e-05,0.00488768,0.06381866,0.16342513,0.089737155,0.00025406023,0.0030863378,0.19996339,0.19267832,0.00043352734,0.0005441816,0.9008796,0.599264,0.000110364424,2.7814578e-05,0.00085189956,0.00020555024,1.6930131e-05,5.4782544e-05,0.0011231487,0.0014450949,8.588215e-05,0.00071203534,0.0042247893,0.0010300188,0.0005271356,0.002441852,0.010854319,0.0019968923,0.0053644027,0.0036964493,0.0040137707,0.0053701736,0.0012252734,0.002269106,0.0012440106,0.0038787778,0.008302675
38,0.152,306.152,0.0047606393,0.9619007,0.9663367,0.0020615405,2.8329798e-05,0.00023287282,0.00021927159,0.8634204,0.00013703138,0.00010156396,0.9052864,0.876338,0.0004705411,0.00018260846,0.9595949,0.96104246,8.003166e-05,5.584924e-06,0.00036483866,0.0030554018,0.00054140855,1.4102644e-05,0.0052028704,0.07156379,0.24413234,0.0988662,0.0001989808,0.002863649,0.1948104,0.1828741,0.00033695667,0.00058849494,0.90910214,0.55179054,8.102062e-05,2.4531264e-05,0.0008141731,0.00016662323,1.4352116e-05,4.4695647e-05,0.001188511,0.0018013109,7.034913e-05,0.00057754293,0.0033625576,0.0009267591,0.00045790744,0.0023079286,0.011632287,0.0019310261,0.005103342,0.0035548443,0.0043303096,0.005804964,0.0010262331,0.0020846385,0.0012496184,0.003993936,0.0095376
39,0.156,306.156,0.006011096,0.96302074,0.96613985,0.0025714561,3.7740137e-05,0.00026655334,0.00025975317,0.85938275,0.000121334604,0.000100932346,0.90496826,0.8752733,0.00045734533,0.0001687039,0.96115214,0.96168125,6.1260056e-05,5.7380184e-06,0.00040283377,0.0033701519,0.00051861553,1.4352116e-05,0.005231464,0.078000546,0.29609567,0.10541013,0.00015495931,0.0023886657,0.17047553,0.15680535,0.00022680126,0.00059834396,0.9101129,0.5001182,5.6014735e-05,1.9868163e-05,0.00075677066,0.00012437944,1.1490114e-05,3.3404755e-05,0.0011592574,0.0019804602,5.088755e-05,0.00041048467,0.0023404688,0.00065667945,0.00033177927,0.001842962,0.010973495,0.0015419598,0.0039923238,0.003163831,0.004315985,0.0056289253,0.00088757277,0.0017173511,0.0011859004,0.0039424975,0.010225001
40,0.16,306.16,0.0072396216,0.9634747,0.96455085,0.0022061623,2.790073e-05,0.00022451652,0.00019463807,0.81489223,8.153192e-05,5.760966e-05,0.9048753,0.8633459,0.0003798789,0.00013039401,0.9620636,0.96215457,4.0618277e-05,4.626714e-06,0.00036917866,0.0035572774,0.0004246991,1.2248734e-05,0.0043297275,0.08463363,0.35764825,0.08620123,9.6057425e-05,0.0017949877,0.14126343,0.124594264,0.00015363372,0.0005991006,0.9022867,0.43471944,4.210949e-05,1.5198635e-05,0.00070763996,0.00010532908,9.745312e-06,2.298013e-05,0.0011198609,0.0019079635,3.467077e-05,0.00029275005,0.0015836782,0.0004733925,0.00020263037,0.0012098541,0.009401933,0.0012256877,0.0034842205,0.002870532,0.003885423,0.005460228,0.00083369337,0.0015339165,0.0010723838,0.003856891,0.0107999565
41,0.164,306.164,0.008513834,0.9630484,0.9622529,0.0022338915,2.906478e-05,0.00021363971,0.00016814342,0.7902335,8.958216e-05,5.505535e-05,0.90235364,0.862909,0.00039214647,0.00014757988,0.9620177,0.9623178,3.3012348e-05,4.2874844e-06,0.00035076815,0.0034255073,0.0003824924,1.1452099e-05,0.0040143006,0.08227312,0.41327253,0.06602244,5.3940206e-05,0.0013530705,0.11359146,0.109489284,0.000117054326,0.00056661776,0.90049124,0.41647452,3.2729535e-05,1.2757643e-05,0.00067131076,9.215132e-05,8.7394255e-06,2.1190544e-05,0.0011515756,0.0020098963,2.4583302e-05,0.00020635911,0.0011436163,0.00038644637,0.00015069121,0.00088797923,0.008290869,0.0010459208,0.0029498683,0.0025086554,0.003554439,0.005369455,0.0007647193,0.0014108925,0.0010391016,0.0035364626,0.0106652025
42,0.168,306.168,0.009602385,0.9660981,0.9661274,0.002469385,3.475724e-05,0.00028301319,0.00025590148,0.8469134,0.000106057465,7.688304e-05,0.9140486,0.87829274,0.00041580203,0.00015108299,0.9633729,0.9633145,2.9389885e-05,4.169586e-06,0.0003512018,0.0035319,0.00037575493,1.1742171e-05,0.0034826826,0.08363465,0.4886819,0.048959408,3.4813e-05,0.0010594442,0.09646713,0.10754557,0.00010524153,0.00053456187,0.9056364,0.43344614,2.613595e-05,1.1291823e-05,0.0006232229,8.409734e-05,8.738217e-06,1.918129e-05,0.0013123676,0.0024447353,2.0101781e-05,0.00015888887,0.0008576931,0.0003334367,0.0001203929,0.0007569189,0.0075832536,0.0008577723,0.002429416,0.00208448,0.0034928753,0.0054753446,0.00067026424,0.0011656787,0.0010540161,0.003557722,0.010380283
43,0.172,306.172,0.013641634,0.97054917,0.96929675,0.0027129888,3.5266745e-05,0.00033344404,0.00030936807,0.86310244,8.4081476e-05,7.477475e-05,0.92280525,0.88921887,0.00036087856,0.00013304854,0.9643261,0.9642895,2.5686728e-05,3.7281359e-06,0.00029816135,0.0029416797,0.000369071,1.1468866e-05,0.0030585728,0.080076136,0.50840986,0.0470329,2.663958e-05,0.000857378,0.08662454,0.10338508,9.4146344e-05,0.00048605754,0.9085358,0.4438403,1.9989815e-05,9.129839e-06,0.0006411618,8.113853e-05,8.499392e-06,1.6187118e-05,0.0013794623,0.002942863,1.9697125e-05,0.00013043791,0.0007852707,0.00031787527,0.00010881771,0.0008137717,0.007696805,0.0007139722,0.002032713,0.001943481,0.0036308544,0.005461429,0.00060451176,0.0010224476,0.0010578753,0.0034826363,0.00997842
44,0.176,306.176,0.013309133,0.9704762,0.9674666,0.0026518875,2.4614947e-05,0.00022292865,0.0002273614,0.8193298,6.135185e-05,5.7587255e-05,0.9224691,0.8928269,0.00031113302,0.00013130922,0.9654089,0.9651237,1.8116649e-05,3.4556e-06,0.00025413168,0.002322252,0.00034350806,1.1466809e-05,0.0021147553,0.079433426,0.5307397,0.050256476,2.478303e-05,0.00075387565,0.08360916,0.108545035,9.006335e-05,0.00040899764,0.9078274,0.4598048,1.6148588e-05,8.637436e-06,0.00073969207,7.975252e-05,8.028921e-06,1.3506049e-05,0.0015061903,0.0032626064,2.1301576e-05,0.00014552665,0.0007994236,0.0003246175,0.000101668316,0.00097166735,0.008800309,0.0006711463,0.0023101335,0.0024102174,0.0041947,0.0056111007,0.0006454591,0.0010962256,0.0011494817,0.0034154395,0.009241191
45,0.18,306.18,0.012810084,0.96880484,0.9660895,0.0032832888,2.9777628e-05,0.00022666095,0.00021037857,0.8039205,6.878163e-05,6.618739e-05,0.92054087,0.8901846,0.00033467557,0.00018130898,0.9664706,0.96644264,1.5619444e-05,3.938161e-06,0.00027544532,0.0022019886,0.0003356071,1.3772967e-05,0.0022246588,0.08233973,0.5843864,0.056726612,2.3714012e-05,0.0007796822,0.091450766,0.12229086,0.00010684191,0.00042559276,0.9108801,0.5108123,1.524327e-05,7.985105e-06,0.0007923534,8.772758e-05,8.129127e-06,1.2693275e-05,0.0016314432,0.0037828924,2.1482734e-05,0.00015331103,0.00079384673,0.00032369312,0.00010226718,0.0011698579,0.009729257,0.0006867183,0.0026868887,0.0026865874,0.0042887474,0.005390309,0.0006170921,0.0010859873,0.0011698746,0.0032801286,0.008929579
46,0.184,306.184,0.013050581,0.96664107,0.9635855,0.0049058106,4.2064577e-05,0.00029567705,0.00030065392,0.80970067,7.848069e-05,9.477209e-05,0.9159598,0.88575524,0.0003493638,0.00026633893,0.968134,0.96779144,1.3904093e-05,4.709557e-06,0.00035661383,0.0024075028,0.0003902685,1.7165361e-05,0.0027068378,0.08671506,0.63657045,0.07152988,2.5957652e-05,0.0008395879,0.10068855,0.13685878,0.00013582235,0.00046257162,0.9108633,0.5730447,1.561639e-05,7.110069e-06,0.0007748692,8.7644294e-05,7.794511e-06,1.1549439e-05,0.0017749978,0.0040631257,2.0376083e-05,0.0001447555,0.0007806498,0.00032233476,0.00010880774,0.0013155814,0.00977797,0.00066366285,0.0026358475,0.0021638556,0.0042489828,0.005243424,0.00051170914,0.0008427776,0.0011009506,0.0033492884,0.0091287205
47,0.188,306.188,0.012554139,0.9636781,0.9616644,0.004597175,3.6146e-05,0.00023574597,0.00029862393,0.8080488,5.8051624e-05,8.5827865e-05,0.910875,0.88353145,0.000308004,0.00033197575,0.9696256,0.96954995,1.237932e-05,4.6061677e-06,0.0004171161,0.002600427,0.00043537194,1.7817947e-05,0.0027784123,0.09050604,0.6568136,0.08361483,2.6834407e-05,0.0008161779,0.10181212,0.14505956,0.00015330447,0.00047129387,0.9083051,0.608987,1.538816e-05,6.2450745e-06,0.00076306396,8.9454705e-05,6.8708164e-06,9.840647e-06,0.0017614403,0.0037479142,2.0894855e-05,0.00013367292,0.0008112357,0.00035407397,0.000115961804,0.0015096356,0.009975477,0.0006329676,0.0024372034,0.001993293,0.0043213097,0.0047891247,0.0004573092,0.0007248848,0.0010465592,0.0033045497,0.009086303
48,0.192,306.192,0.01054512,0.95947987,0.9561268,0.0034434013,2.4803601e-05,0.00015277111,0.00020122968,0.7724251,4.290352e-05,5.861848e-05,0.9023325,0.8778831,0.00026585942,0.0003513083,0.9707563,0.97115684,1.1091326e-05,4.026376e-06,0.0004385691,0.0025228336,0.00044522499,1.7894747e-05,0.0025099565,0.09035754,0.6790007,0.094997674,2.702437e-05,0.0008372092,0.10732947,0.15034527,0.00018853878,0.00044513863,0.90474206,0.6591668,1.4846365e-05,5.644574e-06,0.0007843243,0.000104427905,6.6205694e-06,8.651888e-06,0.0017658771,0.003363782,2.5594712e-05,0.00014538145,0.0008711893,0.00041515345,0.00012661805,0.001796268,0.010228375,0.00063161267,0.0024907556,0.0021978146,0.004151151,0.004398952,0.00045689283,0.0006904894,0.00097186596,0.0029820902,0.008197996
49,0.196,306.196,0.01009153,0.9604145,0.9561554,0.0032057532,2.3429942e-05,0.00013784364,0.00017408161,0.7671951,4.3783737e-05,5.4855205e-05,0.90224826,0.87967545,0.0002698656,0.00038346925,0.97270465,0.97250926,1.047302e-05,4.0323744e-06,0.0004861143,0.0024256501,0.00048894814,1.9740339e-05,0.0025765942,0.089698814,0.6967923,0.11572953,3.077225e-05,0.0008652498,0.112718135,0.17539047,0.0002349794,0.00043421492,0.9100833,0.7272132,1.3719951e-05,5.329844e-06,0.0008429362,0.00010980921,5.9069766e-06,7.457036e-06,0.0016302484,0.002895741,2.9164876e-05,0.00015303091,0.00090976915,0.00045696297,0.0001372876,0.0021237067,0.010557326,0.000660269,0.002693635,0.0024942765,0.004171722,0.004126274,0.00045986206,0.0006979832,0.0009840445,0.0028488175,0.007983016
50,0.2,306.2,0.011891652,0.9628563,0.9585215,0.003349107,2.5920843e-05,0.0001469931,0.00018440526,0.7757409,4.569561e-05,6.505856e-05,0.9071217,0.8829862,0.0002908408,0.00047505758,0.9748379,0.97389245,1.0739265e-05,3.956792e-06,0.00053076976,0.002433759,0.00055342814,2.066516e-05,0.0024974262,0.088152625,0.7098269,0.14269511,3.258003e-05,0.0008294789,0.122734524,0.21439032,0.0003038719,0.00041701036,0.9214115,0.7720374,1.2962834e-05,5.0100025e-06,0.00081033405,0.000114627896,5.418208e-06,6.1888863e-06,0.0014371093,0.0022115968,3.0886797e-05,0.00017238704,0.00093833054,0.00047845687,0.00013024923,0.0024924893,0.011186203,0.00066796696,0.0025139505,0.0024434857,0.0044068084,0.0037137838,0.00041469763,0.00062072393,0.00091912487,0.0027579106,0.0071716383
51,0.204,306.204,0.012353135,0.96138024,0.9570895,0.0033284493,2.674012e-05,0.00014111112,0.00018630904,0.77506506,4.1443112e-05,6.1309445e-05,0.90706444,0.88434666,0.00032340782,0.0006361057,0.9765038,0.9753092,1.2692162e-05,3.9745973e-06,0.00053662976,0.002361981,0.0005813008,2.226554e-05,0.0024837507,0.08486937,0.7030918,0.16408938,3.388416e-05,0.000818914,0.13396381,0.26440895,0.00033458532,0.00034689458,0.92939556,0.8084777,1.1229592e-05,4.7042913e-06,0.0008247556,0.00010693935,4.313334e-06,5.839835e-06,0.0012965186,0.0016521267,3.2107317e-05,0.0001847717,0.001023507,0.0005280798,0.00013096147,0.0027154412,0.011703644,0.00062780885,0.0022502546,0.0023980548,0.0045936215,0.0033493903,0.00038130593,0.00055965787,0.0008528591,0.0025537082,0.0072431117
52,0.208,306.208,0.013487734,0.95888513,0.95661,0.0030854002,2.6440594e-05,0.0001451648,0.00020276509,0.7923262,3.6655965e-05,5.569106e-05,0.90450764,0.88465387,0.0003673067,0.0008027672,0.97770643,0.9761367,1.5863034e-05,4.1793915e-06,0.0004806579,0.0021316865,0.00064679264,2.5444046e-05,0.0024328206,0.0853773,0.6890826,0.20088136,4.0376366e-05,0.00094409095,0.15918379,0.307475,0.00041094882,0.0003012846,0.9335645,0.83977187,1.1627462e-05,4.6834402e-06,0.0008611997,0.00011346406,3.948951e-06,6.2968766e-06,0.0013762021,0.0014535707,3.630055e-05,0.00022415227,0.00119701,0.00062845694,0.00013183251,0.0029173791,0.012458368,0.0006441262,0.0026763435,0.0028937897,0.0052633407,0.0033258433,0.00042558,0.0006489732,0.00086624874,0.0025956922,0.007081218
53,0.212,306.212,0.014234739,0.95588,0.9538968,0.002828605,2.7838088e-05,0.0001616882,0.00022524383,0.8062032,3.2341297e-05,5.4311735e-05,0.903263,0.8837565,0.00038539403,0.00082914776,0.9781859,0.97636795,1.844356e-05,4.153897e-06,0.00045212317,0.0020777558,0.0006880003,2.786619e-05,0.0023709927,0.082230225,0.6807204,0.24508928,5.0130864e-05,0.0010844681,0.18898338,0.34749752,0.00047933517,0.00030027636,0.9354489,0.863286,1.2821494e-05,4.6677446e-06,0.00095570966,0.00012257473,3.2959642e-06,6.740752e-06,0.0013716004,0.0012663594,4.1222815e-05,0.0002708988,0.0012455307,0.0006691757,0.00013309027,0.0029286665,0.012885564,0.00066343707,0.0030263686,0.0029362568,0.005310243,0.0034881665,0.0004241149,0.0006712935,0.0008541046,0.0025087702,0.007198748
54,0.216,306.216,0.013648789,0.9525059,0.95206743,0.002385004,2.5240553e-05,0.00016932614,0.00024371897,0.8121158,2.5473691e-05,4.946225e-05,0.9037659,0.88201654,0.00039973218,0.0008269468,0.97901285,0.9766052,1.9816805e-05,4.1985913e-06,0.00046545194,0.0021171859,0.0006769248,2.7858749e-05,0.0023368485,0.0777356,0.6742475,0.29920557,5.788324e-05,0.0011037729,0.22387077,0.40377304,0.00053138,0.00028755478,0.9400732,0.87812376,1.326616e-05,5.0370413e-06,0.0010198209,0.00012778964,2.7699157e-06,6.936509e-06,0.0013304397,0.0010743128,4.9637227e-05,0.00031064544,0.0012258366,0.0006681382,0.00013197954,0.0028721401,0.013050802,0.00064376567,0.0027009463,0.0023313044,0.0049983202,0.003510122,0.0003922375,0.0005746846,0.0008719836,0.002775919,0.007850918
55,0.22,306.22,0.012141969,0.94844544,0.95028645,0.0021077963,2.3308417e-05,0.00016882137,0.0002763283,0.819426,1.9610552e-05,4.3545097e-05,0.9007737,0.8782447,0.00041391896,0.0008013067,0.97976935,0.9770312,2.4118153e-05,4.330662e-06,0.00047487646,0.0022222216,0.0006532982,2.84541e-05,0.0026047048,0.076284915,0.66567075,0.35990977,6.155168e-05,0.0011257908,0.2698331,0.47163013,0.0005706507,0.00027893687,0.94779474,0.8900833,1.2333785e-05,5.562657e-06,0.0010889969,0.00013727149,2.7509534e-06,8.499594e-06,0.0013053953,0.000913916,5.8499925e-05,0.00034702243,0.0012298364,0.00065894733,0.00013322906,0.002866293,0.012442743,0.000552732,0.002178844,0.0019004236,0.004144372,0.0031607493,0.0003623371,0.0005136974,0.00082248036,0.002628753,0.007578916
56,0.224,306.224,0.011257153,0.9437633,0.94630206,0.0020410654,2.1722719e-05,0.00018289685,0.0003254861,0.8229075,1.5196576e-05,4.2639007e-05,0.89690435,0.8757661,0.00044311874,0.00077110366,0.9794821,0.9766812,3.235595e-05,4.6197874e-06,0.00047481057,0.0023444414,0.00066904555,3.1474705e-05,0.0027591595,0.076645814,0.6815951,0.4270547,6.81315e-05,0.0012029542,0.31301874,0.5284786,0.0006329758,0.00028773496,0.95158446,0.8977963,1.2957568e-05,6.9350735e-06,0.0011411259,0.00014017397,3.151541e-06,1.1103263e-05,0.0012897287,0.00084800477,7.722015e-05,0.00039813473,0.0012806869,0.00069105165,0.00013817685,0.0028717152,0.011568084,0.00049038994,0.001867535,0.0017637712,0.0035892546,0.0026968827,0.00036986402,0.0005354066,0.00080720236,0.0024642916,0.007026857
57,0.228,306.228,0.011261889,0.94090134,0.9462984,0.0017838539,1.876375e-05,0.00018752346,0.00040297033,0.83867085,1.1316792e-05,4.0470037e-05,0.8963846,0.87880963,0.00041836593,0.000736352,0.97915626,0.9764139,4.1792922e-05,4.633506e-06,0.00046499362,0.002584749,0.0006833688,3.0456535e-05,0.002356606,0.07504657,0.7190432,0.48550323,6.2440056e-05,0.0011292095,0.33963978,0.5649108,0.0006175361,0.0002895068,0.9548951,0.9043562,1.4928883e-05,8.095875e-06,0.0011885749,0.00013977768,3.0422577e-06,1.3787777e-05,0.001166454,0.0007632738,8.307273e-05,0.00040458696,0.0013448091,0.00073320523,0.00014469506,0.0028236087,0.011035261,0.00049450045,0.0017604629,0.0016824572,0.003325336,0.0025836418,0.00039444587,0.0005944176,0.0008809138,0.0026454118,0.007037193
58,0.232,306.232,0.010049949,0.93799686,0.94400936,0.0016342408,1.6466347e-05,0.00017752037,0.00048189104,0.8527405,8.642487e-06,3.638331e-05,0.8940835,0.8801806,0.00036541052,0.0007123045,0.979548,0.9764956,4.1339455e-05,4.9118967e-06,0.00047259443,0.0026701917,0.0006627486,2.7476224e-05,0.0020859574,0.064946964,0.73699623,0.5413195,5.89368e-05,0.0010782497,0.36410254,0.5891795,0.00057737785,0.00028386037,0.9575108,0.91113263,1.7654775e-05,9.418445e-06,0.0011569103,0.0001325874,2.7646058e-06,1.6488219e-05,0.0010856573,0.00069525826,8.162224e-05,0.00038486585,0.0013622215,0.0007706996,0.00015567998,0.0028136603,0.011094184,0.00049550144,0.0015082476,0.0013712835,0.0028994926,0.0024389036,0.00036792192,0.0005470896,0.00093359797,0.002734058,0.0074834097
59,0.236,306.236,0.009449876,0.93547237,0.94282496,0.0014698305,1.450778e-05,0.00019363404,0.00056337507,0.86576766,6.6384173e-06,3.3039243e-05,0.89512473,0.8807411,0.0003227013,0.00066845195,0.9796824,0.9764969,4.128391e-05,4.9312434e-06,0.00045218956,0.0023429561,0.00059285574,2.9333853e-05,0.0019313947,0.052684397,0.7117618,0.6212295,6.53854e-05,0.0010789329,0.40744027,0.6041897,0.00061253976,0.00028180212,0.9604178,0.9182998,1.8964227e-05,1.0796329e-05,0.0012056339,0.00013937229,2.6046475e-06,1.6748954e-05,0.0011119451,0.000720406,8.0904734e-05,0.00037838495,0.0014472248,0.0008157775,0.00015463606,0.0031942527,0.01273103,0.00051211484,0.001548955,0.0013936063,0.0028111008,0.0025254965,0.00041165398,0.0005588985,0.0010208047,0.0031012357,0.007989899
60,0.24,306.24,0.009331085,0.93343693,0.9409254,0.0015350854,1.434385e-05,0.00025980716,0.00077728234,0.8841736,5.6394565e-06,3.4721557e-05,0.8968324,0.88354653,0.00029076842,0.0006890367,0.9795965,0.97602886,4.0852483e-05,5.0114218e-06,0.0004092625,0.0019180176,0.0005183329,3.3552864e-05,0.0017886764,0.042604126,0.6902503,0.68374366,7.5711025e-05,0.0010774682,0.43635023,0.61777806,0.00078038796,0.00029694434,0.9618481,0.92837334,2.1552134e-05,1.2697876e-05,0.0012666502,0.00014274144,2.630913e-06,1.8030727e-05,0.0011899509,0.00081866776,7.658099e-05,0.0003942224,0.0016463397,0.0008639358,0.00015953742,0.0037477699,0.014093391,0.00051886524,0.0018640566,0.0015620221,0.002556553,0.0026646382,0.00047697462,0.00062403537,0.0011087661,0.0031459704,0.008479348
61,0.244,306.244,0.00821285,0.9296344,0.93702984,0.0016796283,1.4874056e-05,0.00032066065,0.00094961235,0.8970151,5.002564e-06,3.7088572e-05,0.89707005,0.88678515,0.00026113578,0.0007439641,0.9799263,0.9761553,3.99388e-05,5.2448613e-06,0.00041543634,0.0017634025,0.00045172384,3.2236356e-05,0.0014840184,0.039132446,0.70966023,0.7028966,7.60789e-05,0.0010617555,0.44386888,0.6276328,0.0008923039,0.00035058177,0.96401346,0.93423706,2.583383e-05,1.4156462e-05,0.0013782943,0.00014932123,2.362532e-06,1.8666855e-05,0.0012252856,0.001013911,7.1921415e-05,0.000383279,0.0018162229,0.0008577707,0.00017777192,0.0046319445,0.015543501,0.00054153654,0.0020069259,0.0016830731,0.0025212322,0.00276917,0.00053164264,0.0007075678,0.0012264024,0.003542475,0.009119186
62,0.248,306.248,0.0070527773,0.92479926,0.93302274,0.0016411039,1.3564173e-05,0.00034972435,0.0010178302,0.9042715,4.4090025e-06,3.6491656e-05,0.897638,0.8887465,0.0002273926,0.0007560062,0.98036456,0.97638375,3.8448405e-05,5.2904047e-06,0.00046174496,0.0017214047,0.0003695239,2.9026862e-05,0.0013060543,0.035400823,0.7322727,0.7155205,7.3795134e-05,0.001080975,0.4567864,0.6254774,0.00091281155,0.00043745822,0.9651015,0.9353834,2.9629451e-05,1.7921338e-05,0.0014651818,0.00016824559,2.0868533e-06,1.7951477e-05,0.0011876136,0.001140653,7.222437e-05,0.00037802584,0.0019001756,0.0008757309,0.00020622456,0.005427741,0.01615977,0.0005480432,0.0018494865,0.0013734944,0.002259729,0.0027547718,0.0005341972,0.00068344246,0.0012145235,0.0037063248,0.009353239
63,0.252,306.252,0.0061746044,0.92196083,0.9292062,0.0016272113,1.447442e-05,0.0004217845,0.0011286191,0.9115183,4.3459413e-06,4.2815114e-05,0.8967067,0.8886448,0.00020413443,0.00073772273,0.98063207,0.9760749,3.9120838e-05,5.6329955e-06,0.0004795762,0.0015718627,0.000309466,2.9981305e-05,0.0012507652,0.029217029,0.74461436,0.73723406,7.891844e-05,0.0011918293,0.4736652,0.6268406,0.0008742381,0.000507378,0.9663813,0.93871766,2.9362429e-05,1.986195e-05,0.0015518315,0.00017028693,1.76208e-06,1.6562637e-05,0.0010232812,0.001130836,7.347508e-05,0.0003381425,0.0019988604,0.00091021776,0.00022595753,0.005914743,0.017090347,0.00051336654,0.0015302941,0.0011639118,0.00214324,0.0026626696,0.0005538197,0.00066234544,0.0012408994,0.0039374977,0.009274136
64,0.256,306.256,0.005692502,0.9198612,0.9256807,0.0015749069,1.5757161e-05,0.0005314015,0.0012216391,0.9155095,4.242552e-06,5.3783497e-05,0.8954136,0.8880631,0.00018688355,0.00069597457,0.98053783,0.9756488,4.1335596e-05,5.979947e-06,0.00046039541,0.0014050443,0.00028005152,3.5468605e-05,0.0011029746,0.022464748,0.75548166,0.7554128,8.044239e-05,0.0011743624,0.49307638,0.6077492,0.00086578715,0.0005523623,0.96858996,0.9411855,2.7636817e-05,2.1245907e-05,0.0014504001,0.00017848867,1.3962515e-06,1.30256985e-05,0.00085415953,0.0010517756,7.322216e-05,0.00031310378,0.002109442,0.0009139834,0.00021886283,0.006533933,0.018091219,0.00046836046,0.0012736395,0.0011063062,0.0023787834,0.0025306141,0.00058538705,0.00072616286,0.0012412079,0.004198325,0.0089041805
65,0.26,306.26,0.006011298,0.9191751,0.92415965,0.0014496765,1.7497903e-05,0.00062614196,0.0012778528,0.9201258,3.887209e-06,5.8217935e-05,0.8952732,0.8920385,0.00015303383,0.00064247573,0.9808626,0.9758331,3.91879e-05,5.8064425e-06,0.00044251134,0.0011677754,0.00023846985,3.9209957e-05,0.000984739,0.01732803,0.7539785,0.77010787,7.069965e-05,0.0010701189,0.49983174,0.59208393,0.0007666175,0.00062569574,0.9692932,0.94445086,2.3866221e-05,2.1128635e-05,0.0015057048,0.00017472166,1.0343864e-06,1.2053467e-05,0.00074508326,0.0010864265,7.309561e-05,0.0002825775,0.002259956,0.0009605487,0.00024391609,0.0077999122,0.018344972,0.00042316227,0.0012966068,0.0011382906,0.0022430357,0.0023715422,0.0005594405,0.00075377687,0.0012740811,0.004193103,0.008542868
66,0.264,306.264,0.0058555873,0.9178218,0.9210298,0.0014602509,2.0747128e-05,0.0007173998,0.0012122921,0.922019,3.6094555e-06,5.79135e-05,0.89152306,0.89553875,0.00012333269,0.0006205853,0.9808038,0.97541577,3.195736e-05,5.9817835e-06,0.00041320894,0.0009760021,0.00020503563,4.057538e-05,0.00081918674,0.014867085,0.75235933,0.7692762,6.3747866e-05,0.0009809106,0.51188153,0.5942763,0.0006932439,0.0007101487,0.97011703,0.94551724,2.4045421e-05,2.7078906e-05,0.0015597102,0.00016944873,8.524267e-07,1.1300528e-05,0.00073330343,0.0012665518,7.013599e-05,0.00024539148,0.0023246673,0.0009799915,0.00028723667,0.010136817,0.019508319,0.00040660935,0.0014115779,0.0012110665,0.0022945155,0.0022730539,0.00056951394,0.0008060844,0.0013478781,0.004468866,0.008708959
67,0.268,306.268,0.005947705,0.9174739,0.91762275,0.0014826059,2.8737384e-05,0.0009534745,0.0011060133,0.92281693,3.945394e-06,7.109048e-05,0.8864314,0.8979921,0.00011245296,0.00060529495,0.97980624,0.9740012,2.669866e-05,6.080938e-06,0.00037557245,0.00079171377,0.0001671262,3.9415816e-05,0.00064372766,0.012542056,0.7526705,0.7542054,5.6322242e-05,0.0008689256,0.52608806,0.59439075,0.00066946656,0.0007869498,0.9715873,0.9449094,2.3010502e-05,3.5144807e-05,0.0016740478,0.00016330113,7.375599e-07,1.0859235e-05,0.00072050595,0.0014334741,8.0590806e-05,0.0002342611,0.0024368,0.0010126999,0.00031788344,0.012824855,0.020360263,0.00039462472,0.0017074635,0.0013750584,0.002461727,0.0023858414,0.000595753,0.00087311055,0.001312647,0.00452395,0.008316762
68,0.272,306.272,0.006372402,0.9196563,0.9188107,0.001514508,4.181166e-05,0.0012579041,0.0010630712,0.9284424,4.4612125e-06,9.271561e-05,0.8854484,0.89972013,0.000100682024,0.0005739229,0.97785985,0.972111,2.4435534e-05,5.862445e-06,0.00032476697,0.00060524273,0.00012595333,3.93445e-05,0.00048156182,0.0092143705,0.74508166,0.7459718,4.5690776e-05,0.00073719845,0.52361315,0.5802097,0.0006094072,0.00091783894,0.97212946,0.9425684,2.0299452e-05,4.5699187e-05,0.001856064,0.00013757274,6.573282e-07,1.137252e-05,0.000685186,0.0014688944,9.0928814e-05,0.00021763051,0.0026677093,0.0010826751,0.0003797609,0.015343843,0.019678172,0.0003613247,0.002072462,0.0016706826,0.0026031234,0.0025409067,0.0005909481,0.0009211422,0.001371703,0.0043709376,0.008642969
69,0.276,306.276,0.0058851517,0.9202727,0.92051005,0.0016869056,6.342746e-05,0.0014821874,0.0008826088,0.9278988,5.128977e-06,0.00011017011,0.8804098,0.9019773,8.701306e-05,0.0005078691,0.9760315,0.97051686,2.1324178e-05,6.0674583e-06,0.00031860496,0.000564219,0.00010730218,3.883326e-05,0.00037590598,0.006562598,0.7192461,0.74257284,3.915223e-05,0.000608815,0.5306913,0.54534155,0.000511894,0.0011935653,0.9714515,0.936033,1.8558241e-05,6.004083e-05,0.0019995063,0.00012262125,6.081386e-07,1.1943734e-05,0.00065636216,0.0015605199,9.7284195e-05,0.0001953399,0.002602377,0.0011220906,0.00041918168,0.017411213,0.01856133,0.00033668338,0.0023400835,0.0019391084,0.0028619214,0.00257185,0.00061172177,0.0010132823,0.0013932913,0.0045126704,0.008878847
70,0.28,306.28,0.00540108,0.9218382,0.923351,0.0016215816,7.425135e-05,0.0015470749,0.00068007293,0.9224218,5.4111233e-06,9.598308e-05,0.8752887,0.9057687,7.082577e-05,0.0004210265,0.97497535,0.969836,1.9228304e-05,5.496697e-06,0.00032430165,0.0005510566,9.2911025e-05,3.8604074e-05,0.0002939706,0.005023907,0.6897664,0.7570132,3.126136e-05,0.00047997065,0.54312986,0.51970184,0.00042201157,0.0013904658,0.97061175,0.93077815,1.8277813e-05,9.224309e-05,0.0022841536,0.00011050185,6.113782e-07,1.3475929e-05,0.0006506497,0.0015673104,9.508085e-05,0.00017225805,0.0023765382,0.0010498055,0.00046344043,0.017279701,0.016309217,0.00031976434,0.0025688903,0.0021306865,0.0028579861,0.0024834778,0.00061126257,0.0010602418,0.0013789875,0.004651585,0.008819221
71,0.284,306.284,0.005320115,0.92312574,0.9226555,0.0019186912,0.00011038106,0.0016911469,0.00057480426,0.9203016,6.515243e-06,8.8219254e-05,0.86254597,0.9048839,6.458328e-05,0.0003416924,0.9733881,0.9689673,1.7130347e-05,5.342286e-06,0.00029988668,0.0005271972,8.46484e-05,4.1448922e-05,0.00020720591,0.0038421622,0.663596,0.7420454,2.3444269e-05,0.00039248812,0.5383633,0.49518067,0.00036448633,0.0014572344,0.97065586,0.92747706,1.7352018e-05,0.00011739257,0.0022743163,9.8635384e-05,7.3859314e-07,1.4960337e-05,0.0005838547,0.0013194336,0.00010368896,0.00017719854,0.0020594294,0.0009382407,0.0004513601,0.017455311,0.013477991,0.00027774484,0.002573552,0.002213418,0.002697455,0.002436013,0.0006134672,0.0011005873,0.001511587,0.0047753924,0.0089354925
72,0.288,306.288,0.005315439,0.92612034,0.92583025,0.0020238284,0.00013614768,0.0017786421,0.0005003218,0.9170254,8.853192e-06,8.12374e-05,0.8508888,0.9042304,6.552878e-05,0.00026773286,0.9716323,0.96847343,1.7292252e-05,5.55247e-06,0.00027776256,0.00052882405,7.707338e-05,4.261291e-05,0.0001575728,0.0028075527,0.6290127,0.722687,1.7688733e-05,0.00031238224,0.53429633,0.4737458,0.0003051906,0.0014794299,0.9717766,0.9277461,1.4633408e-05,0.00012622843,0.0020751404,8.930478e-05,9.4785224e-07,1.598998e-05,0.00049545424,0.00092638965,0.000111200134,0.00020656108,0.0016394048,0.00078316,0.0004197381,0.017381983,0.010522621,0.00021918693,0.0021153048,0.0019440711,0.0023464677,0.0021417243,0.0005725125,0.0010901698,0.0014468541,0.004459173,0.008088988
73,0.292,306.292,0.005454655,0.927972,0.92813957,0.002224428,0.00019242152,0.0019143022,0.00044785193,0.91477346,1.2455701e-05,8.205967e-05,0.84657776,0.90560967,6.55076e-05,0.0002327807,0.97012246,0.96771514,1.6955823e-05,5.9962445e-06,0.00027551674,0.00054489763,7.342402e-05,4.6422618e-05,0.00014433458,0.002233896,0.57867587,0.72789466,1.5861702e-05,0.000256045,0.5438788,0.46759242,0.00025948856,0.0016224093,0.9715334,0.9230529,1.3004214e-05,0.00013269429,0.0018876798,8.0165024e-05,1.180124e-06,1.8235784e-05,0.0004606652,0.00073687674,0.000117316806,0.00022047682,0.0013836259,0.000689215,0.00041912976,0.017835544,0.009109426,0.0001983118,0.0017494347,0.0016910849,0.002097073,0.0020383138,0.0005560028,0.0010132524,0.0014110564,0.004138114,0.008124079
74,0.296,306.296,0.0050641675,0.929254,0.9286059,0.002529779,0.00024335628,0.0018861684,0.00039870024,0.9096143,1.747984e-05,8.029264e-05,0.8444888,0.905146,6.458605e-05,0.00019609326,0.96949905,0.9678234,1.5295853e-05,6.415054e-06,0.0002654175,0.00054059766,7.1505216e-05,4.8212492e-05,0.00013381842,0.0019115363,0.53353465,0.7441402,1.581708e-05,0.00021192516,0.5663377,0.473405,0.00022883131,0.0017426104,0.9700355,0.9130111,1.3068201e-05,0.00015183295,0.0017656527,7.819614e-05,1.5918931e-06,2.1216083e-05,0.00046859804,0.0006661618,0.00010928607,0.0002445868,0.0012225757,0.0005661465,0.00037381984,0.018205803,0.008569987,0.00019090527,0.0016212696,0.0017279686,0.0023095896,0.0020369813,0.0005855215,0.0010588317,0.0014074362,0.004463455,0.00848191
75,0.3,306.3,0.0050821607,0.92914283,0.9286065,0.003057446,0.00030647352,0.0019247138,0.00037296535,0.9027316,2.5963323e-05,8.118001e-05,0.8418475,0.90235394,6.790584e-05,0.00015514177,0.9687639,0.96770513,1.429518e-05,6.5899426e-06,0.00026198517,0.0005155192,6.5978806e-05,5.247558e-05,0.00011362354,0.0014837867,0.4807636,0.75730574,1.5130707e-05,0.00016011043,0.5737278,0.47649658,0.00020908174,0.0017168033,0.96815264,0.8990257,1.221247e-05,0.00017411912,0.0017946494,8.193339e-05,2.2190104e-06,2.4212686e-05,0.00046826783,0.00062629447,0.00011972661,0.0003145039,0.0011606253,0.00052183523,0.00034565135,0.020394474,0.008251423,0.00018961632,0.0017498218,0.001817098,0.002314556,0.002056025,0.00062057073,0.0011046076,0.0014240246,0.0045370683,0.008375434
76,0.304,306.304,0.0053934464,0.93110126,0.93197334,0.0036755374,0.00043364987,0.0020773623,0.00040934244,0.9003738,4.2820382e-05,9.287594e-05,0.8375628,0.89762294,7.464907e-05,0.00012251805,0.96717995,0.9665649,1.4306691e-05,7.5267403e-06,0.0002587479,0.0005100848,6.513436e-05,5.662933e-05,0.00010716015,0.0011414172,0.4385111,0.76372993,1.555993e-05,0.00013916646,0.56270695,0.47890013,0.0001950144,0.0016858235,0.96716934,0.88638306,1.0878182e-05,0.0001965352,0.0018933401,8.9779016e-05,3.1293157e-06,2.913616e-05,0.0005309724,0.00071803865,0.00013349662,0.00040529243,0.0012585872,0.000552775,0.00033137624,0.022367768,0.008729278,0.00020201654,0.0019961693,0.002151067,0.0026700941,0.002127954,0.0006878875,0.0012095707,0.0015471147,0.0054720556,0.008707218
77,0.308,306.308,0.005190609,0.9312433,0.93189186,0.0046159388,0.0005739163,0.002314615,0.0005195418,0.8893936,7.28952e-05,0.00011385315,0.8327381,0.89186186,8.676707e-05,0.00011388485,0.9664125,0.9660266,1.4634858e-05,9.808229e-06,0.00027802886,0.0005523031,7.3303054e-05,6.4091044e-05,0.000113737806,0.0010420881,0.40952897,0.7602606,1.7822756e-05,0.00013410162,0.5823842,0.48517704,0.00018745268,0.0017915274,0.96583784,0.8708429,1.0217633e-05,0.00020551244,0.0020109364,0.00010554958,4.281074e-06,3.7244023e-05,0.00062681665,0.00091233815,0.0001443639,0.000490991,0.0013245462,0.0006005504,0.00036157918,0.024126515,0.009191062,0.00021699835,0.0020627219,0.0022763242,0.0027108532,0.0021150047,0.00071120664,0.0012573537,0.0015199512,0.0056466963,0.008815162
78,0.312,306.312,0.005026227,0.92980933,0.93107563,0.0048399656,0.00063215644,0.0025030703,0.00070120546,0.87908083,0.0001152122,0.00013533895,0.8336706,0.88421464,9.8865436e-05,0.00010482018,0.9668027,0.9661623,1.4749247e-05,1.1936196e-05,0.00030405127,0.0005825396,7.708654e-05,7.36978e-05,0.00012797707,0.0010424972,0.3677661,0.7325895,1.9877942e-05,0.00014105556,0.59305084,0.48721167,0.00017582049,0.0017918728,0.9635252,0.8449593,9.694368e-06,0.00022188725,0.0021086622,0.00011797859,5.915946e-06,4.715813e-05,0.00074904086,0.0011427582,0.00015291947,0.0005782152,0.001304413,0.00059976446,0.00041322684,0.025758548,0.009501865,0.0002322183,0.00195669,0.0021003527,0.0026460623,0.002026714,0.0006929596,0.0012149782,0.0014637461,0.0055686734,0.008890658
79,0.316,306.316,0.004873179,0.92831975,0.9283071,0.0050829346,0.00072520436,0.002672049,0.00087991887,0.86325276,0.00019780324,0.00016838392,0.8259638,0.87044555,0.00011373053,9.496615e-05,0.9667144,0.965735,1.4845247e-05,1.5991107e-05,0.0003352913,0.00060434896,7.8189805e-05,8.305547e-05,0.00012708835,0.0010204677,0.3392554,0.6795044,2.1404107e-05,0.00013520068,0.5983855,0.48775616,0.0001743449,0.0017780444,0.96223414,0.8194379,8.582815e-06,0.00023042543,0.00203085,0.00012414496,7.4109903e-06,5.243231e-05,0.0008113888,0.001279037,0.00017542696,0.0006911946,0.0011904933,0.0005681019,0.0004310811,0.025677672,0.009306917,0.00022871244,0.001695541,0.0019319226,0.0024561547,0.0018822254,0.00067574845,0.0011717348,0.0013304986,0.0054230276,0.008602976
80,0.32,306.32,0.00508029,0.9260638,0.9239838,0.0055762436,0.0008531933,0.0028170752,0.001123716,0.8419801,0.00030737187,0.0002079594,0.8091039,0.8548279,0.00012302167,8.88278e-05,0.9663725,0.9647543,1.5918271e-05,2.1843683e-05,0.0003843007,0.0006799479,8.278709e-05,8.907633e-05,0.00013072416,0.0009562142,0.317008,0.6584138,2.240356e-05,0.00013204588,0.57922345,0.5041478,0.00018307901,0.0016526087,0.9620677,0.7980587,7.768841e-06,0.00023491308,0.0019019237,0.00013391902,8.772091e-06,5.362862e-05,0.000854298,0.001291682,0.00019945091,0.00082246435,0.0012004337,0.0005963811,0.0004333057,0.023578264,0.00850461,0.00021616099,0.0016796347,0.0020058528,0.0020742114,0.0017552727,0.00070372695,0.0013330125,0.0013141017,0.004835324,0.007960673
81,0.324,306.324,0.005188637,0.9236146,0.9205079,0.00551016,0.0008831367,0.002963353,0.0014479092,0.82279533,0.0003826124,0.00021905385,0.7977488,0.8388882,0.00012502442,8.557664e-05,0.9665315,0.96487933,1.6623559e-05,2.711948e-05,0.00042206023,0.00070362334,8.612811e-05,9.179611e-05,0.00012839388,0.0009240008,0.27186385,0.6428496,2.2555701e-05,0.00011205274,0.5744821,0.49330336,0.00018398534,0.0015418181,0.95947224,0.74818283,6.864359e-06,0.00023092776,0.0017812982,0.00013152538,9.2014625e-06,5.422278e-05,0.00088869274,0.0012902851,0.0002083339,0.00095126056,0.0013470644,0.0006279776,0.00042568467,0.02286795,0.0078831855,0.00020551086,0.0016440002,0.0020458389,0.0019523109,0.0017115517,0.0007049204,0.0015140611,0.0012632867,0.004279379,0.0069565084
82,0.328,306.328,0.004986245,0.9189741,0.9122448,0.0054180273,0.0009758487,0.003081002,0.0018091094,0.79610354,0.0005071326,0.00025526306,0.77801514,0.82100624,0.00012820045,8.92109e-05,0.96639967,0.96450305,1.6807771e-05,3.30463e-05,0.00044714747,0.0007025513,8.94368e-05,9.363752e-05,0.00013460677,0.0008251683,0.20993197,0.6186706,2.6195237e-05,0.00010243906,0.57928634,0.45634353,0.00019417336,0.0014785151,0.95286113,0.6475148,5.6277927e-06,0.00024385702,0.0014947569,0.00012266265,1.0054554e-05,5.234044e-05,0.00094688806,0.0013664782,0.00023006671,0.0010239205,0.0014439215,0.0006595228,0.00040671093,0.022727424,0.007930724,0.00019000073,0.0013896689,0.0018008009,0.0019973838,0.0016231664,0.0006730882,0.0015133258,0.0011779043,0.004027588,0.0064269453
83,0.332,306.332,0.004983629,0.91311663,0.9040482,0.0048302603,0.0009396327,0.0031012874,0.0021662442,0.76625365,0.0006441468,0.00028594726,0.7457302,0.7899044,0.00013380733,8.961556e-05,0.9654015,0.9626469,1.7270842e-05,4.187255e-05,0.00046236772,0.00067831686,8.520907e-05,9.6214826e-05,0.00013178789,0.0006409147,0.15673554,0.5695591,2.9721201e-05,0.00010345351,0.563606,0.42001426,0.00020502174,0.0015067052,0.9479379,0.56987315,4.7444214e-06,0.00023031318,0.0013244541,0.000115260875,1.0522697e-05,4.8936912e-05,0.00092186173,0.001454959,0.00025832615,0.0010523946,0.0015907147,0.0007155965,0.00043005662,0.022860982,0.008695558,0.00018424391,0.0011405825,0.0015788715,0.0020346176,0.0015309645,0.00065616175,0.0014550387,0.0011183748,0.0040238537,0.0065192836
84,0.336,306.336,0.0046445634,0.9060141,0.89391077,0.004124552,0.0008096298,0.003020576,0.0024702088,0.7211353,0.0007709328,0.00031080365,0.7050922,0.7534397,0.00012401717,7.8967074e-05,0.9646931,0.9605409,1.7568982e-05,4.998383e-05,0.00044347098,0.0006018001,7.550942e-05,8.8203364e-05,0.00011258428,0.0004659089,0.11755455,0.5042426,2.8214885e-05,9.355604e-05,0.5456372,0.39650705,0.00020457576,0.0013834896,0.9448171,0.5609562,3.7922664e-06,0.00022265463,0.0011822517,0.000106962296,1.17444115e-05,4.8770224e-05,0.00088806386,0.0014952986,0.00030543163,0.0010913735,0.0017051493,0.0007558996,0.00046249203,0.024142507,0.010720593,0.00019049106,0.0010195285,0.0016074965,0.0020513244,0.0014330953,0.0006672611,0.0015662996,0.00113064,0.004004981,0.006344751
85,0.34,306.34,0.00484566,0.9003211,0.88660574,0.0036728422,0.0007494939,0.0029720666,0.0026506395,0.6850146,0.00077823614,0.00028814786,0.67195517,0.71179354,0.00011472631,7.1021095e-05,0.9643885,0.9595006,1.8022098e-05,5.7700985e-05,0.00042910964,0.0005296819,6.803859e-05,8.702385e-05,9.2884184e-05,0.00034872658,0.096532464,0.4576852,2.6941283e-05,8.8992376e-05,0.5375496,0.35247484,0.00020474396,0.0011757145,0.94146144,0.53378505,3.0623225e-06,0.00023936052,0.0010396334,9.495482e-05,1.3957513e-05,4.875162e-05,0.0008209652,0.001437259,0.00035331174,0.0011714558,0.0017397923,0.000738709,0.0004935464,0.027125672,0.012114193,0.00020142396,0.0009750498,0.0015748319,0.0019869562,0.001423765,0.0007188267,0.0017775934,0.0011797391,0.004213835,0.0067229765
86,0.344,306.344,0.004988592,0.89455396,0.87549573,0.0035605205,0.0007854683,0.0029632582,0.002855893,0.6428715,0.0007704352,0.00028294197,0.63157487,0.67360395,0.00011744866,6.954657e-05,0.96321946,0.95764333,1.9830057e-05,7.2000264e-05,0.00042987632,0.0004919021,6.9061876e-05,9.065419e-05,8.750976e-05,0.0002840523,0.07967568,0.42214033,2.7938086e-05,9.7559634e-05,0.53564054,0.31158394,0.00020913,0.00113672,0.93897706,0.4957877,2.7895057e-06,0.00023120646,0.0008591056,9.0248286e-05,1.6281076e-05,4.888477e-05,0.0007371552,0.0012583133,0.0003818665,0.0012337446,0.0017680714,0.00072502025,0.0005119472,0.028337108,0.012650243,0.00020179899,0.00075213984,0.0012217846,0.0017250025,0.001340676,0.00070091913,0.001707435,0.0010305302,0.0039077788,0.0069353925
87,0.348,306.348,0.005227537,0.8910431,0.86566466,0.0032226741,0.00076334865,0.0030578792,0.0031817318,0.6119799,0.0008023879,0.00030123146,0.60533106,0.6463023,0.00012617392,7.228866e-05,0.96148825,0.9550773,2.2863967e-05,8.9166e-05,0.00046135884,0.00048332516,7.0859816e-05,9.012564e-05,8.6283966e-05,0.0002507984,0.070743285,0.4077176,2.7921838e-05,0.00010185745,0.5299873,0.28416827,0.00022016172,0.0011783779,0.9364809,0.44976535,2.700577e-06,0.00025101873,0.0007421375,9.142971e-05,1.9857782e-05,4.6378813e-05,0.0006391981,0.0010659702,0.00042069628,0.0013830555,0.0019173952,0.0007815772,0.00052004366,0.029627832,0.01344713,0.00019522055,0.00059020956,0.0009649599,0.0015065352,0.0013079701,0.00072201225,0.0017351765,0.0009822306,0.0037437822,0.0073033106
88,0.352,306.352,0.0050734906,0.88487643,0.85314363,0.0031656555,0.0006601105,0.0031108416,0.003713066,0.579692,0.0008590794,0.00035481178,0.5970989,0.61648196,0.00013273477,7.353866e-05,0.96004385,0.9529438,2.970471e-05,0.00010393554,0.00047829113,0.0004985024,7.290563e-05,9.382961e-05,8.9788606e-05,0.00023217556,0.065146,0.40382668,3.112381e-05,0.0001016946,0.5308023,0.2753709,0.0002284714,0.0013364486,0.9353937,0.4140528,2.8739455e-06,0.00027291983,0.00069501513,0.00010558853,2.4542003e-05,4.538709e-05,0.00055940024,0.0008984118,0.00048757147,0.0016305083,0.0021391772,0.00083640544,0.00052320963,0.02958748,0.014961899,0.00021188738,0.00054828974,0.00088946027,0.0014764392,0.0012843822,0.0008164288,0.0019953288,0.0010591348,0.003909108,0.007641342
89,0.356,306.356,0.005256597,0.87980676,0.8429257,0.003061862,0.000613848,0.0031238417,0.004062583,0.5352892,0.00086827425,0.00041875936,0.5858117,0.5820433,0.00014151684,7.997482e-05,0.95908093,0.95069516,3.2777763e-05,0.00012367587,0.0004987595,0.00051088183,7.8206205e-05,9.669708e-05,9.2154565e-05,0.00021177225,0.056160763,0.40980536,3.5166126e-05,0.000112135254,0.5445746,0.26916698,0.0002681283,0.001508519,0.9321486,0.37498838,2.8528234e-06,0.00030699788,0.0006663958,0.00011786018,3.0387373e-05,4.6465935e-05,0.00050181174,0.00078813336,0.000495957,0.001832608,0.002213199,0.0007989538,0.0005469919,0.03215479,0.016287794,0.00020797667,0.00050100544,0.0008517206,0.001444905,0.0012181922,0.0008305031,0.0020692882,0.0010683342,0.0038690711,0.007285004
90,0.36,306.36,0.005838607,0.87785596,0.8371044,0.003077401,0.0006521029,0.0032554346,0.0045772786,0.49318653,0.00094572135,0.00047435326,0.5795145,0.57043004,0.00015554347,8.814164e-05,0.958271,0.9486875,3.8765767e-05,0.00013866732,0.00050346466,0.0005222761,8.581575e-05,0.00010744542,9.899685e-05,0.00020710319,0.051711634,0.4145412,3.614803e-05,0.00012472387,0.56268615,0.2748843,0.0003025355,0.0015959311,0.9272665,0.34302917,2.6510368e-06,0.00031785585,0.0006326109,0.00013524388,3.6587517e-05,5.1022005e-05,0.00046761968,0.0007763622,0.0005270128,0.0017492414,0.0021353401,0.0008250311,0.00058836956,0.034430254,0.016834572,0.00019051194,0.00042139587,0.00072417955,0.0013270222,0.0012141776,0.00082208,0.0018527798,0.0010150307,0.0037983833,0.006977312
91,0.364,306.364,0.006531509,0.8797022,0.83790416,0.003124801,0.0007285994,0.0035491008,0.005096899,0.479693,0.0010885835,0.00056889,0.5863548,0.5587025,0.00017744169,0.00010128126,0.9568386,0.9469369,4.2353506e-05,0.00016640252,0.00050468027,0.0005300476,9.7622644e-05,0.000121015815,9.92921e-05,0.00021776625,0.049774643,0.41339448,3.6344576e-05,0.0001271275,0.5704185,0.29331058,0.00032295336,0.0015251718,0.9251564,0.3422624,2.7995666e-06,0.00033298213,0.0006050109,0.0001701329,4.8866823e-05,6.0745693e-05,0.0004752525,0.0008616474,0.00055753434,0.0017133199,0.0021136084,0.00083139184,0.0006150708,0.03810238,0.01785613,0.00017889368,0.0003619118,0.0006305904,0.0011580737,0.0010925984,0.0007537025,0.0016612768,0.0009357866,0.0036791747,0.006336201
92,0.368,306.368,0.0068569034,0.8757825,0.83380944,0.0029708194,0.00077408174,0.004103246,0.0059692683,0.47234413,0.0013668285,0.0007755133,0.60153437,0.552738,0.00021096892,0.00012560959,0.9550822,0.94488716,5.2251024e-05,0.00021331607,0.00051147724,0.00053536065,0.00011025083,0.00013280111,0.00010260241,0.00023310719,0.04451133,0.3972212,3.748286e-05,0.00012377404,0.5623,0.28703007,0.00031319098,0.0014888977,0.9210952,0.35072926,3.134157e-06,0.00033995195,0.0005936564,0.00022249884,5.9592425e-05,7.014395e-05,0.00050065096,0.0010508697,0.0005944202,0.001724262,0.002112809,0.0008660775,0.0006658606,0.042805888,0.021029782,0.00019548989,0.0004111404,0.0006915886,0.0011385379,0.000999635,0.0008168915,0.0018052307,0.0009813551,0.004019211,0.0059869583
93,0.372,306.372,0.0077027944,0.87053216,0.82861316,0.0026944869,0.0008260132,0.004546416,0.0068876874,0.45358676,0.0017421393,0.0011133834,0.60138524,0.5461384,0.00025562206,0.00017212571,0.95311576,0.9412655,6.6968874e-05,0.00028870057,0.0005557638,0.00055888144,0.00012992647,0.00015112433,0.00011663184,0.00025477385,0.03940813,0.40776798,4.0019855e-05,0.00014184702,0.56211567,0.28275353,0.00033385085,0.0016226419,0.9165161,0.3425681,3.563324e-06,0.00035684984,0.0005862257,0.00028065106,7.1196315e-05,7.979489e-05,0.0005424269,0.0012833489,0.00066043204,0.0017549876,0.002280834,0.00092898303,0.0007590085,0.047915995,0.023099814,0.0002016136,0.00045129083,0.0007500369,0.0010882906,0.0009191266,0.0007980989,0.0018457227,0.00096423976,0.0039756955,0.005943351
94,0.376,306.376,0.007843582,0.8630842,0.81683725,0.002664913,0.0009732693,0.0049697873,0.0075981426,0.4214733,0.0022105817,0.0015101905,0.58764076,0.52203107,0.000306444,0.00024525463,0.9513849,0.93783325,8.260501e-05,0.0003834157,0.0006006546,0.00058839563,0.00015375814,0.0001693279,0.00013665546,0.00029163907,0.037235316,0.44333583,4.781192e-05,0.00016991273,0.56849617,0.29175094,0.00036469105,0.0018217127,0.91070276,0.33857918,4.5383426e-06,0.00039398554,0.000590704,0.00036316816,8.590484e-05,8.91643e-05,0.0006156479,0.0015909714,0.0007215686,0.0018657509,0.0024523325,0.0009682983,0.0007489631,0.051667135,0.025012918,0.00018833124,0.00038620734,0.0006524527,0.0010617246,0.0008533855,0.0008006698,0.0017824059,0.00093322445,0.0043189283,0.005813554
95,0.38,306.38,0.008099804,0.8531962,0.80669683,0.0026757913,0.0010963886,0.0054573696,0.009218115,0.385285,0.0025890134,0.001962711,0.57393646,0.4836559,0.00035764882,0.00030435203,0.95188767,0.9373686,9.6702795e-05,0.00043877776,0.0006281895,0.0005951688,0.00016586947,0.00018931933,0.00015516144,0.00033779276,0.034943707,0.46925426,5.2002724e-05,0.00017105731,0.5661762,0.30293655,0.00039033513,0.0017656812,0.9066652,0.36074108,5.4678785e-06,0.00041277902,0.0005999357,0.00044534277,0.00010214954,9.57068e-05,0.0006465498,0.0018306604,0.000760613,0.0019264119,0.0025500269,0.00088433584,0.0006911755,0.051936608,0.026001126,0.00017659066,0.00033079513,0.0005970946,0.0010334516,0.00077404,0.0007657406,0.0017820835,0.0009265508,0.0042457683,0.005978474
96,0.384,306.384,0.009113314,0.8449504,0.7972881,0.003017975,0.001325254,0.00601749,0.011007547,0.37675565,0.0033043956,0.0025615713,0.56939703,0.4749148,0.00042206788,0.00037915714,0.9526304,0.93865925,0.000121105506,0.00051906065,0.00066598115,0.000608469,0.00018004293,0.00020823046,0.00018528193,0.0004043562,0.032816637,0.46470606,5.984602e-05,0.00017797714,0.545384,0.3036395,0.0004164411,0.001629291,0.89998597,0.41203687,6.0195184e-06,0.0003845728,0.0005451158,0.0005264374,0.00011983145,9.873796e-05,0.0006688126,0.0020001696,0.0007248244,0.0019036235,0.002458681,0.0007534361,0.0005978161,0.046345033,0.025077399,0.00017378325,0.00034134745,0.0006426971,0.0010330018,0.00063935015,0.00074312795,0.0018274166,0.00095900195,0.0043831686,0.0057008616
97,0.388,306.388,0.00967901,0.83362347,0.7851145,0.00335,0.001584422,0.006394108,0.012606684,0.36929518,0.004315866,0.0032442717,0.5658756,0.47932088,0.00049597374,0.00048861175,0.9537671,0.94129485,0.0001455887,0.0006043795,0.00073160755,0.00063545315,0.0001982876,0.00023043466,0.00021321765,0.0004658794,0.031293742,0.46938834,6.721174e-05,0.00020014624,0.5415865,0.30877674,0.00039616204,0.0015659566,0.896671,0.4603618,6.0061e-06,0.0003416528,0.0004787,0.0005918251,0.00013434466,0.0001098994,0.0007191943,0.0023254724,0.00065879594,0.0018713955,0.0026363241,0.0007047007,0.00048951706,0.04068373,0.023088953,0.00016139276,0.00035423585,0.00065357226,0.0010027684,0.0005543013,0.00073093234,0.0017710254,0.0009334988,0.00447061,0.005521268
98,0.392,306.392,0.009564561,0.81880057,0.7749271,0.0034780109,0.0017317926,0.006339171,0.0124281915,0.34790075,0.0046686823,0.0036226164,0.5387088,0.46129417,0.00056237297,0.0006000046,0.95398766,0.9434957,0.00014590847,0.000635986,0.0007486006,0.00062609545,0.00020052293,0.000245508,0.00023493526,0.00047214708,0.02986688,0.4755209,6.754791e-05,0.00021893233,0.556535,0.31900057,0.00034073505,0.0014077753,0.8943038,0.4764388,5.372184e-06,0.00030893332,0.00041668967,0.0006021231,0.00014339051,0.000118036536,0.0007780408,0.002575079,0.0006002629,0.0018553487,0.0028599233,0.00067596236,0.00043896082,0.03732429,0.022114506,0.00014209503,0.00029221215,0.00055734144,0.0009337145,0.00050728227,0.0006534729,0.001460984,0.00082491984,0.0040113027,0.004966742
99,0.396,306.396,0.00935887,0.80460775,0.76518196,0.0032865,0.0017349685,0.005979871,0.011857338,0.33783126,0.004910869,0.0036051355,0.51403946,0.44573975,0.00058893627,0.000705336,0.9552717,0.944271,0.00014803708,0.00063893804,0.0007381707,0.0006019599,0.00018275616,0.00025294887,0.00025658557,0.00045977486,0.026937854,0.4958335,6.9972186e-05,0.00023136832,0.56625575,0.32043055,0.0003076046,0.0013565742,0.8955631,0.46280202,4.623825e-06,0.00029666422,0.00036031049,0.0005953707,0.00015407002,0.000120426084,0.0007931001,0.0028834105,0.0005338755,0.0018297101,0.0031311498,0.0006540044,0.00039598628,0.036142524,0.022735454,0.00013583401,0.00024271764,0.0005053817,0.0009118449,0.00046217363,0.0005904864,0.0013412227,0.0007611724,0.0036423977,0.0045557027
100,0.4,306.4,0.009078587,0.79983926,0.76303786,0.0029000826,0.0016026313,0.0055093654,0.010123008,0.33698896,0.005389928,0.0033826723,0.51011467,0.46060014,0.0005979762,0.0008076979,0.95526814,0.9429614,0.00015616971,0.00065011537,0.00071146485,0.00057725294,0.00017683869,0.00026230383,0.00026024797,0.00044197403,0.024747277,0.51174796,7.1596995e-05,0.00024018054,0.5698843,0.31735888,0.00028814978,0.0013402827,0.89437026,0.45567748,4.001498e-06,0.00028511317,0.00031262983,0.00061907293,0.00016592514,0.00011988792,0.0008128607,0.0030335793,0.00048750037,0.0019480592,0.0032988614,0.00072413223,0.00035450427,0.034101423,0.023527144,0.00013990556,0.00025700816,0.0005255776,0.0009324174,0.00042238098,0.0005758653,0.0014619324,0.000788539,0.0036048687,0.0044025662
101,0.404,306.404,0.00811106,0.8032002,0.768327,0.002641282,0.0016137526,0.0051719514,0.00923621,0.35409203,0.005840595,0.0036111048,0.53493506,0.48100102,0.00060749234,0.00087072153,0.9556853,0.94419754,0.00017915979,0.0006691553,0.00071669836,0.0005714066,0.00016730683,0.000262803,0.00024593557,0.0004505047,0.02899305,0.52687657,6.313382e-05,0.00024426216,0.5708691,0.30967826,0.00024770948,0.0014422799,0.8945484,0.41301882,3.7245716e-06,0.0003076627,0.00029838143,0.0006101206,0.00017038175,0.00011995299,0.0007937783,0.0031413604,0.00045141563,0.0020897693,0.0035280525,0.0008131768,0.0003049896,0.032594487,0.025670856,0.00015583013,0.00028155665,0.0006001819,0.001089016,0.00042078376,0.0006201312,0.001692698,0.0008786969,0.003863512,0.0042490615
102,0.408,306.408,0.007230949,0.81065536,0.776307,0.0025839722,0.0017557698,0.0049871886,0.009828069,0.39196607,0.0059823343,0.0040120287,0.5798805,0.5049343,0.00063627947,0.0009198915,0.95636106,0.94563884,0.0002081592,0.0007107282,0.00080349465,0.00060340855,0.00016181343,0.0002623101,0.00023583251,0.00047394016,0.036552276,0.5287551,5.509726e-05,0.00027831632,0.5907767,0.30030438,0.0002282258,0.0015950972,0.89971566,0.38468444,4.135083e-06,0.00035988548,0.00029665488,0.0005917825,0.00017493755,0.00012220535,0.00073875615,0.0030035644,0.00042664626,0.0023835134,0.003816591,0.0008488104,0.0002859001,0.035283033,0.027791712,0.00016597309,0.00028411622,0.00064757507,0.0011488672,0.00040386987,0.000569337,0.0016816308,0.00084821816,0.0037491769,0.0040239342
103,0.412,306.412,0.0066275587,0.82159144,0.78661615,0.0027466435,0.0017108179,0.004677869,0.010716371,0.4243565,0.0061394684,0.0040592374,0.6132628,0.54104793,0.0006609446,0.00096582633,0.95724887,0.9465546,0.00026699158,0.00077994785,0.0009156473,0.00067594333,0.00016324756,0.00025329494,0.00023507462,0.00046823677,0.041132312,0.5088925,5.1612133e-05,0.00031207385,0.6088457,0.28225347,0.0002197821,0.0018108074,0.90319353,0.32312813,4.0751274e-06,0.0004089756,0.0002978991,0.0005705876,0.00017430418,0.00011966429,0.0006825478,0.002588884,0.00041431788,0.0024922392,0.003937421,0.0008966556,0.00026950252,0.036142975,0.028561769,0.00017099355,0.00031216373,0.0007149881,0.001169488,0.00037812427,0.00053459883,0.0015518544,0.00082680106,0.0034614343,0.0038862927
104,0.416,306.416,0.005942714,0.83290404,0.79280806,0.0033707253,0.0016852827,0.0044540996,0.0112267295,0.44862586,0.0070800614,0.003967432,0.63149,0.5895013,0.0007093857,0.0010406108,0.9585657,0.9483229,0.00031686228,0.0008571665,0.0009966717,0.0007451494,0.00017800514,0.0002502006,0.00023991207,0.0005117401,0.047042508,0.4661726,5.1694144e-05,0.0003473718,0.6206936,0.2747003,0.00022037298,0.0021412107,0.91315174,0.31199962,4.3541427e-06,0.0004696106,0.00030543335,0.00055857014,0.00016865307,0.000120848716,0.000660863,0.002222634,0.0003608519,0.002510108,0.003894882,0.0009031141,0.00024708983,0.03561219,0.027506651,0.00017367293,0.0003641923,0.0008237793,0.0012922795,0.0003627282,0.00051971764,0.001610934,0.0009277434,0.0037879362,0.0039123143
105,0.42,306.42,0.0057522585,0.8389421,0.8025257,0.0040383614,0.0018226764,0.0042521334,0.01158904,0.4857749,0.007813068,0.003960882,0.65470487,0.63578004,0.0007662092,0.0011898136,0.9592564,0.95053554,0.00037425096,0.00083094207,0.0010021323,0.0007730232,0.00018507903,0.0002565868,0.00023763053,0.0005786984,0.053629603,0.4481396,5.043901e-05,0.00035447266,0.63302785,0.277203,0.0002162424,0.0023773953,0.9193648,0.29069233,4.545463e-06,0.00055256474,0.00030503323,0.00054380466,0.00017151168,0.000115115785,0.0006471999,0.0020666567,0.00033966103,0.0026157422,0.0037887425,0.00087436725,0.00024226193,0.03407678,0.025143718,0.0001733627,0.00037173557,0.0008675832,0.0013513364,0.0003477028,0.00047926916,0.0016831863,0.0010348585,0.004077625,0.0039549544
106,0.424,306.424,0.005827328,0.8413782,0.81794393,0.0046359478,0.0022804944,0.004110714,0.011578285,0.5683542,0.008885093,0.0039744605,0.7040596,0.69257313,0.0008449627,0.0014180378,0.95878464,0.95062417,0.0004386038,0.00081029156,0.00094688806,0.0007194366,0.0001927129,0.00028334177,0.00024957256,0.00063665095,0.056544334,0.4474614,5.5290795e-05,0.0003722189,0.6410663,0.2860059,0.0002290232,0.002942404,0.9225646,0.27349022,4.7851217e-06,0.0006380633,0.00031448863,0.00054016063,0.000174448,0.00010884812,0.0006180839,0.0019403851,0.00034573936,0.0027635559,0.0037749903,0.0008000036,0.00025540547,0.03650812,0.0239565,0.0001703324,0.00034757965,0.00074052747,0.0013145498,0.0003431881,0.00044800926,0.0016170287,0.0009874352,0.0037657178,0.00401391
107,0.428,306.428,0.005939419,0.8472821,0.8295738,0.0046154265,0.0025042908,0.0040216604,0.011181742,0.6068584,0.009379999,0.0037318072,0.7309773,0.713886,0.00088681234,0.0015068055,0.95831656,0.9492391,0.00047983116,0.0008117538,0.00088498025,0.00065841846,0.00019343603,0.00027167943,0.00024868612,0.00070146343,0.053364005,0.4409118,6.22972e-05,0.00035019626,0.64813113,0.28635994,0.00022130854,0.0032620418,0.9266696,0.25464696,4.656274e-06,0.0006898794,0.00032067564,0.00053370226,0.00017807439,0.00010990558,0.00063873164,0.002007113,0.00035381212,0.0026597183,0.003705976,0.0008586923,0.0002620364,0.03952989,0.025897631,0.00017682859,0.00036724962,0.000705496,0.0012890913,0.00033172392,0.00043868241,0.0016071254,0.0009337555,0.0037609392,0.0041032266
108,0.432,306.432,0.0059678648,0.845018,0.82327294,0.004254593,0.0022163633,0.0038978762,0.010533464,0.56545997,0.008870467,0.0035103755,0.706192,0.6958014,0.00088934205,0.0015420679,0.9573882,0.946988,0.00047775093,0.00075817644,0.0008322713,0.0006257721,0.0001771401,0.00024192124,0.00025121841,0.0007685229,0.04655023,0.41378218,6.7060835e-05,0.00032970324,0.65595794,0.29751185,0.00018873841,0.0027626362,0.9271662,0.26427197,4.5065003e-06,0.00067858904,0.00031970185,0.0005542294,0.00018915297,0.00012409821,0.0007619802,0.002357097,0.00033697384,0.0027914392,0.0039177756,0.0008914588,0.00027326067,0.05111573,0.033771824,0.00020351661,0.00045008768,0.00084112777,0.0014061045,0.00032105128,0.00045952728,0.0017811542,0.0009930335,0.0038075442,0.004430931
109,0.436,306.436,0.006638505,0.85064065,0.82622695,0.004366887,0.0025220192,0.004184932,0.012033059,0.56540066,0.008900218,0.003601696,0.7093189,0.7105119,0.0009669578,0.0016417751,0.9566514,0.9458522,0.0004975745,0.0007284193,0.0008053777,0.0005864059,0.00016182083,0.00022736116,0.00025778488,0.0008531396,0.042451184,0.39405617,6.873245e-05,0.00031383362,0.6701693,0.3247109,0.00018493403,0.0020285752,0.9256771,0.31822297,4.3181867e-06,0.0006443095,0.000306105,0.0005038076,0.00018587594,0.00013230501,0.00085809524,0.002682733,0.00032357898,0.0029713248,0.0040417863,0.0008088821,0.0002847459,0.061183713,0.037224345,0.00021676364,0.0005124994,0.0009782349,0.0014435016,0.0002994884,0.00045014045,0.0018415143,0.0009978447,0.003904814,0.0045643323
110,0.44,306.44,0.007382716,0.865826,0.840464,0.0052550314,0.003317915,0.004393974,0.014346507,0.6179518,0.009352814,0.003618636,0.76850003,0.76444304,0.0011366172,0.0016518114,0.9556523,0.94745755,0.00048446265,0.0006652958,0.00075633626,0.0005096151,0.0001594372,0.00024425445,0.0002500134,0.00090632134,0.04492446,0.37452573,7.297741e-05,0.00028993963,0.67366624,0.366358,0.00018810549,0.0014752158,0.92212796,0.38722005,4.1923454e-06,0.00062721944,0.00028777283,0.00043817025,0.00017316428,0.00013130622,0.0009162648,0.0027428402,0.00028115296,0.002980459,0.0040183826,0.0007042254,0.00025673874,0.057408344,0.03401068,0.00020963348,0.00049919257,0.00094147923,0.0013630437,0.000274196,0.00043330833,0.0017103618,0.0010041978,0.0039116936,0.0047168448
111,0.444,306.444,0.008584759,0.8840828,0.85914713,0.005777315,0.0052390303,0.0050283996,0.016898554,0.6411784,0.0097091,0.0030990338,0.8084235,0.80970234,0.0013118576,0.0015147849,0.9567275,0.9509284,0.00045563438,0.00059183413,0.00070453045,0.00044297133,0.00016948555,0.00025065735,0.00023334601,0.0010253814,0.044283118,0.39279425,7.6613935e-05,0.00021088023,0.6735978,0.40099117,0.0001828428,0.0011644003,0.92431664,0.4587071,4.2177344e-06,0.0005600952,0.00025848555,0.00039115665,0.00015603234,0.00012762877,0.0009367026,0.0028202904,0.00025890264,0.0027439203,0.0036708326,0.0006169822,0.0002176743,0.049289193,0.030493,0.00019845669,0.0004684098,0.0008236509,0.001288601,0.00025936094,0.00043929965,0.0016746424,0.0010033419,0.0039831894,0.004826507
112,0.448,306.448,0.008671529,0.88594514,0.86266994,0.0069354814,0.007549721,0.0063316547,0.023106588,0.6316538,0.010998446,0.003493169,0.82368046,0.82749736,0.0015314537,0.001603664,0.95880544,0.9533057,0.00042008213,0.00060913945,0.00074832386,0.00044318318,0.00017714381,0.00025695597,0.0002676647,0.0011773334,0.03972519,0.44272602,8.37386e-05,0.00016179755,0.6774014,0.4410086,0.0001934434,0.0008506824,0.92437583,0.4976875,4.2596566e-06,0.0005381312,0.00024409198,0.00035190495,0.00014831655,0.00011425872,0.0008657966,0.0028996347,0.00024137773,0.0024389126,0.0032890986,0.0005284764,0.00019988553,0.044806916,0.029127393,0.0001897632,0.0004272246,0.00077853655,0.0012145529,0.00025304005,0.0004406657,0.0016936759,0.0010375526,0.003937845,0.0049206424
113,0.452,306.452,0.008990496,0.88708967,0.87186235,0.008458626,0.009483594,0.007348362,0.028000344,0.6422697,0.011233513,0.003988427,0.8289166,0.8347437,0.0016894002,0.0017875605,0.95986944,0.9540382,0.00038983254,0.0006607654,0.0008242484,0.0005028819,0.00017872505,0.00025905523,0.00032731958,0.0012188845,0.035502624,0.49172494,9.366735e-05,0.00012308867,0.67767864,0.49206564,0.00021569754,0.00065851666,0.9222654,0.5286302,4.5822976e-06,0.0005683302,0.00025001031,0.00033502132,0.0001436126,0.00010225109,0.00078288803,0.0033264314,0.00024154165,0.002471754,0.0033367071,0.00049102306,0.00020882474,0.047738638,0.029710073,0.00019366654,0.0004594688,0.0008114321,0.0011893819,0.00024743803,0.00046225646,0.0018306483,0.0010743426,0.0040060636,0.005017892
114,0.456,306.456,0.0093217855,0.8900752,0.8783853,0.010935925,0.011254007,0.007511282,0.030015253,0.6326344,0.009698314,0.004091855,0.8375028,0.8351619,0.001878085,0.0019068697,0.96053886,0.9553189,0.00034312953,0.00063335174,0.00080362667,0.0005229907,0.00017367127,0.00027222285,0.00034913476,0.0011245254,0.034918573,0.53030765,9.687216e-05,9.771829e-05,0.6679559,0.5289231,0.0002562428,0.000504019,0.92011577,0.57847774,4.8879947e-06,0.000609174,0.00026489873,0.00033998952,0.00014306793,9.8725905e-05,0.0007908413,0.0042109345,0.0002443395,0.0025872127,0.003597894,0.00049522996,0.00023985146,0.05645862,0.032299157,0.00020113838,0.0004973199,0.0007716641,0.0010359368,0.00022258564,0.00044540668,0.0018052428,0.0010105916,0.0036044575,0.004537195
115,0.46,306.46,0.0094566,0.8869743,0.8776097,0.010631902,0.010077963,0.0066101085,0.026458608,0.5981481,0.00800666,0.003740742,0.8287626,0.82593316,0.0019045261,0.0018587675,0.96135324,0.95676714,0.00027064013,0.0005818432,0.0007537898,0.00048614465,0.00018045765,0.00029743623,0.0003377512,0.0011104209,0.03470435,0.5735022,8.593113e-05,8.038388e-05,0.65928763,0.5575002,0.00028803112,0.00040630673,0.9201391,0.60351145,5.088971e-06,0.00064896024,0.00026502073,0.00035720484,0.00015053984,0.00010147199,0.0008367072,0.0048581227,0.00025099097,0.00275248,0.0038241877,0.0004883675,0.00024639373,0.07066305,0.03799291,0.00022161049,0.0005620782,0.000822429,0.000966834,0.00020669996,0.00046630594,0.0018702701,0.0010175447,0.0034989482,0.0043550795
116,0.464,306.464,0.008748005,0.8753673,0.8596971,0.009830613,0.009541663,0.006350436,0.0252415,0.5666842,0.0076647503,0.003380159,0.80291396,0.8103688,0.0018341264,0.0017373114,0.9607851,0.9563749,0.00021323716,0.00058188476,0.0007560898,0.00048110692,0.00019078387,0.0003139542,0.0003378401,0.0011998472,0.032641575,0.6061565,7.850523e-05,7.050441e-05,0.6460663,0.57532287,0.0003264118,0.00035071865,0.92087,0.624135,5.1854922e-06,0.00070098095,0.00028008252,0.00037927012,0.00015410836,0.00010965341,0.00085734087,0.0047283266,0.00028826573,0.0031577926,0.0039387564,0.00047976186,0.00026665578,0.083231084,0.045699842,0.00026231457,0.00061063917,0.0008961124,0.0009875933,0.00019604352,0.00048052,0.0018838008,0.0010214818,0.0035755648,0.0043200646
117,0.468,306.468,0.009784647,0.87528235,0.85619247,0.009358502,0.009204777,0.006320273,0.026907897,0.5761712,0.007502279,0.0030623598,0.79458284,0.812269,0.0017205488,0.0016224418,0.96080977,0.95707715,0.00020348227,0.000567531,0.00073671946,0.00046737838,0.0001914587,0.0003219048,0.0003118291,0.0011705807,0.031315,0.6191243,7.812846e-05,6.5890716e-05,0.6292407,0.57406753,0.00035939593,0.0003438893,0.92169654,0.6214296,5.28869e-06,0.0007766249,0.00028904428,0.0003733209,0.0001541401,0.000114594455,0.00084462954,0.004724269,0.00034074544,0.0034379764,0.004505445,0.000551503,0.00033768086,0.09016588,0.04800511,0.00029027817,0.0006382348,0.0008944622,0.00093515194,0.00018655899,0.00045935318,0.0018480187,0.0010312466,0.003324086,0.004460401
118,0.472,306.472,0.009791321,0.8852626,0.8651776,0.008374559,0.009301467,0.005733247,0.026709458,0.58886755,0.006583797,0.0027924387,0.7974707,0.82243156,0.0015246319,0.0014860936,0.9614098,0.9588052,0.00019140575,0.00053472497,0.00067477836,0.0004192508,0.00018772582,0.0002941503,0.0002507661,0.0010581813,0.032527495,0.606653,7.8537065e-05,6.990876e-05,0.6288207,0.56218183,0.00038474574,0.00044627555,0.9238198,0.6230742,5.364443e-06,0.0008177821,0.00028981167,0.0003849543,0.00015524075,0.00012271764,0.00084250624,0.0051557594,0.00036357882,0.0037876954,0.0054048155,0.00067215035,0.00040224975,0.09292767,0.04980548,0.00030656852,0.00063819916,0.0008941695,0.00093702885,0.00017972647,0.00047453912,0.001797148,0.0009817282,0.0036750694,0.0048271944
119,0.476,306.476,0.008784841,0.88321257,0.86209,0.008383576,0.009765866,0.005614121,0.026138147,0.5619345,0.0061579654,0.0028710954,0.7658976,0.8137094,0.0014653514,0.0014231821,0.9612019,0.95893544,0.00017365222,0.0005944936,0.0006725781,0.00039665593,0.0001888565,0.00028613,0.00024620842,0.0009915163,0.03332108,0.6216567,9.089613e-05,8.126118e-05,0.6360945,0.5623113,0.0004144044,0.0006053411,0.9245518,0.60535413,5.645026e-06,0.0008753659,0.00029758288,0.0003842232,0.00016697058,0.00012785899,0.00077183655,0.0048615704,0.0004239112,0.0041129496,0.0058952253,0.00067476125,0.00041552944,0.10390749,0.051778432,0.0002933471,0.0005864917,0.0008336369,0.0008469429,0.00018060379,0.00045876682,0.0017672823,0.0009249517,0.003410984,0.0052104304
120,0.48,306.48,0.009111872,0.8733274,0.85968184,0.009777822,0.012023998,0.0068227975,0.028873414,0.5584754,0.006478772,0.0030295167,0.72149134,0.7958965,0.0014081527,0.0014580223,0.96005243,0.9574783,0.00017265008,0.0007343846,0.0007454512,0.00041222517,0.0001969214,0.00030872488,0.000271136,0.0010860318,0.035570487,0.6378137,0.00011332231,8.944823e-05,0.6276694,0.566247,0.0004919664,0.0008290637,0.9237894,0.59334,6.582619e-06,0.0009954675,0.00032522646,0.0004052003,0.00017499327,0.00013948743,0.000698222,0.0039850227,0.00047590377,0.004378263,0.005922986,0.00060204306,0.00041926184,0.1228119,0.05907949,0.000304674,0.00060396636,0.00085067796,0.0008176574,0.00018389887,0.00048701544,0.0019934315,0.00096260087,0.003489592,0.005728777
121,0.484,306.484,0.009232616,0.8676346,0.85302526,0.010237889,0.012587426,0.0074534896,0.030669393,0.5637859,0.006851171,0.0029250223,0.69743276,0.7854863,0.0012387,0.0014025985,0.95796925,0.95561063,0.000162073,0.0008064086,0.00070632517,0.00040235117,0.00019717732,0.00029718623,0.0002689168,0.0010382922,0.03380028,0.62047046,0.00014247437,9.1905065e-05,0.6090622,0.5538259,0.00056737976,0.0009482599,0.92013514,0.5876425,7.680016e-06,0.0010880734,0.00033090363,0.00039784465,0.00017633574,0.0001564462,0.00068347534,0.0034513925,0.0005282238,0.004441486,0.0062033907,0.0005923592,0.00042738832,0.12537302,0.062033042,0.0003272319,0.00061736157,0.00086938933,0.000847489,0.00019032494,0.0005015664,0.0022188534,0.0009939015,0.0037829587,0.006047522
122,0.488,306.488,0.009289673,0.86941,0.85074,0.008823348,0.009517778,0.0069791055,0.029079566,0.53842974,0.0068332814,0.0026284468,0.66631794,0.7746031,0.0010485912,0.0013264188,0.9561829,0.95293105,0.0001578221,0.0007808886,0.0006231982,0.00037184387,0.00018375443,0.00027013125,0.00023685873,0.00086203177,0.029415708,0.58195335,0.00016067048,9.773824e-05,0.5920292,0.52846026,0.00060032867,0.0008947938,0.91259146,0.5886361,8.584198e-06,0.001047693,0.00033092604,0.00037473702,0.00018278146,0.00017454066,0.000698677,0.003336872,0.00052691915,0.0042220987,0.0066022724,0.00057605474,0.0004302826,0.14054044,0.0713553,0.00031263818,0.0005235154,0.00076084386,0.000722753,0.00017793573,0.00046205358,0.0021854495,0.0009211738,0.0033002712,0.006392345
123,0.492,306.492,0.009014919,0.8589913,0.8359523,0.008232355,0.008532003,0.007335434,0.026556151,0.48332188,0.006794442,0.0029847494,0.6005954,0.73251516,0.00091083115,0.0013150452,0.95391214,0.94771284,0.00015057315,0.00080533815,0.00056902994,0.00034778717,0.00018002182,0.0002529303,0.00022182844,0.00074236706,0.023962725,0.54876405,0.00017550962,9.369264e-05,0.5669525,0.5056558,0.0005830762,0.00078690867,0.89860576,0.5828317,9.416819e-06,0.0010488254,0.0003335445,0.00038561635,0.00018284333,0.00019133095,0.00068492844,0.0031017414,0.000510307,0.0041601057,0.006669831,0.0005946987,0.0003463845,0.1345514,0.07732797,0.00030689721,0.00048215548,0.0006939452,0.0006843562,0.00016394438,0.00050786766,0.002360268,0.00089813187,0.0038425254,0.0070244893
124,0.496,306.496,0.009249406,0.8322957,0.81210864,0.008511693,0.009345197,0.008106031,0.025243899,0.45367733,0.007382694,0.003310331,0.49884194,0.6645955,0.0008336063,0.0013634753,0.9524619,0.9418736,0.00014583825,0.00086959975,0.0005597942,0.0003362335,0.0001770626,0.00024735313,0.00023955209,0.000714653,0.019664083,0.5423057,0.00019143059,9.318893e-05,0.5296013,0.50319445,0.00058679364,0.00066071976,0.88180137,0.56609523,1.1317288e-05,0.0010990655,0.0003646142,0.00038294191,0.00018144214,0.00020886416,0.0007103958,0.0030091945,0.00048071405,0.003645767,0.0062627257,0.0005207237,0.00033705754,0.14082855,0.08023776,0.00029831176,0.00042393483,0.0006038377,0.0006155986,0.00014953867,0.0004896181,0.0023911064,0.00084842264,0.003366587,0.0069257175
125,0.5,306.5,0.009508949,0.8112794,0.79584503,0.008173529,0.008333543,0.007745976,0.02326335,0.4226183,0.0074802805,0.0033837138,0.44399035,0.6171774,0.0007275552,0.0012182206,0.95203304,0.94059646,0.00014485257,0.0008284694,0.0005001077,0.00030232273,0.00017994012,0.00022699207,0.00023055288,0.0006586491,0.016294314,0.5247665,0.00021574485,8.508776e-05,0.5049481,0.5112029,0.0005465624,0.0005859961,0.8665613,0.56129074,1.3075919e-05,0.0011894329,0.00040083285,0.00040081603,0.00018317488,0.00021942446,0.0007142876,0.0031375967,0.0004770201,0.0034928455,0.0063949134,0.00049216993,0.0003122578,0.14289518,0.08648381,0.00030348278,0.0004176984,0.0006010334,0.0005910903,0.00014081983,0.00049414847,0.002653433,0.00078114384,0.0032777227,0.006925249
126,0.504,306.504,0.008639088,0.8042269,0.78164953,0.007098928,0.006730221,0.0069387727,0.020751247,0.37906066,0.0074718166,0.0032998647,0.43218967,0.5873188,0.0006140019,0.001083423,0.9524595,0.9420822,0.00014174845,0.0007499033,0.00042627245,0.00026303736,0.00017043458,0.00019592729,0.00018994312,0.0005438832,0.015073923,0.4999199,0.00020475256,8.291864e-05,0.49907154,0.51914495,0.0005778345,0.0005119835,0.8713973,0.59478474,1.4987997e-05,0.0011288987,0.0003992236,0.00041573026,0.00018992303,0.00022255785,0.0007136059,0.0032894895,0.00043853212,0.0034378488,0.0071547297,0.0004436767,0.00028107173,0.14154845,0.08816739,0.00028704887,0.00041690702,0.00067477,0.0006140443,0.00013910039,0.0004997103,0.003078178,0.00076967245,0.0031883507,0.0066206027
127,0.508,306.508,0.008161932,0.7868729,0.7596234,0.006323074,0.0061001345,0.00711543,0.019158687,0.3132027,0.0072290637,0.0034802195,0.37705544,0.5182034,0.00059437315,0.0010064638,0.95316327,0.9408602,0.00013984795,0.00072598987,0.0004142873,0.00024993,0.00016391453,0.00019324191,0.00017495423,0.00048279314,0.014534923,0.48019373,0.00020153749,7.4051444e-05,0.48204228,0.5378206,0.00065533083,0.00041502985,0.8734475,0.638529,1.6123058e-05,0.0010752119,0.0004052499,0.0004243331,0.00018360118,0.00022163203,0.00065376726,0.0031416246,0.00046851073,0.0033252805,0.0072594266,0.0004531557,0.00026753204,0.13030759,0.08371703,0.00027351244,0.00042338058,0.00065101625,0.0005878104,0.00014591515,0.0005289466,0.0032656468,0.00077516935,0.0030357346,0.0063761044
128,0.512,306.512,0.00798566,0.7458032,0.7261354,0.006339276,0.00634848,0.007711591,0.018065859,0.28022158,0.0070797997,0.0038821062,0.32526028,0.42981797,0.00061947666,0.000996022,0.95361805,0.9404794,0.00013539176,0.0007781427,0.00044772023,0.00027049516,0.00017711241,0.00020388096,0.00018410519,0.000463039,0.01355449,0.5062024,0.00021211032,6.671932e-05,0.48111513,0.56778896,0.0008202119,0.0003704784,0.8765402,0.68205065,1.9565961e-05,0.001062195,0.0004070076,0.00044179225,0.00017070358,0.00020393814,0.0005446772,0.003147921,0.00049659534,0.0032395334,0.007543317,0.00045637658,0.00027853376,0.1284641,0.08370733,0.0002658488,0.00039963503,0.00058970577,0.0005663314,0.0001527644,0.000551545,0.0030773194,0.0007386626,0.0032252225,0.006545938
129,0.516,306.516,0.0077249133,0.70470464,0.6939018,0.005524442,0.005208681,0.0067461687,0.016907636,0.26954424,0.0068131112,0.0037049819,0.27700365,0.3604224,0.0006018546,0.00093147845,0.9547053,0.94049567,0.00012616525,0.00079911284,0.0004505393,0.00026373146,0.00018008775,0.0001910482,0.00018451906,0.00041399195,0.011752341,0.49206263,0.00022335885,6.208631e-05,0.46011895,0.57263064,0.0009101593,0.0003268506,0.8825461,0.72327054,1.866794e-05,0.0009645853,0.00042135414,0.000455531,0.00014912956,0.0001745262,0.00042126517,0.0029423984,0.0005335715,0.0033853785,0.008525305,0.0004279822,0.00026692898,0.12475267,0.08293405,0.00026630366,0.0003852028,0.0005956852,0.00053071615,0.00016426234,0.0005980922,0.0028924358,0.000695524,0.0033392105,0.007126525
130,0.52,306.52,0.007208693,0.6722559,0.6592849,0.0046021305,0.004143274,0.005389238,0.013745642,0.25687015,0.006206852,0.0032001173,0.2431675,0.3004249,0.0005555628,0.00090964773,0.95506793,0.9390276,0.0001307678,0.00078716996,0.0004042905,0.00023195938,0.00017078272,0.00016563761,0.00017192742,0.00032088478,0.009772019,0.4729793,0.00020814032,5.915566e-05,0.4656061,0.5769826,0.00091182016,0.00029902533,0.8974312,0.7693567,1.618167e-05,0.0007925837,0.0004448203,0.00049760775,0.00013656337,0.00014805727,0.00034653646,0.0026990203,0.0004995615,0.003207971,0.0091075245,0.00041460234,0.00025369108,0.11503841,0.08302698,0.0002624239,0.00040296075,0.00064494566,0.00050769775,0.00017947903,0.0005938414,0.0029194856,0.0007077172,0.0033282752,0.007771806
131,0.524,306.524,0.0063040387,0.6278105,0.61009383,0.0038627507,0.003497688,0.004699911,0.010556051,0.20346615,0.005515417,0.0029003446,0.199993,0.22302347,0.0005291273,0.0009211268,0.95517784,0.93701774,0.0001246681,0.0007523201,0.00036773272,0.0001986803,0.00016040473,0.00015642458,0.00015525542,0.00023290279,0.007922002,0.470105,0.0002197798,5.5625565e-05,0.457993,0.5803416,0.0008928844,0.00027064994,0.90440863,0.794992,1.4682977e-05,0.0007028586,0.0004929604,0.00052889966,0.00012234632,0.00012781694,0.00031572906,0.0026293895,0.0005008061,0.0031162184,0.009498307,0.00043722207,0.00026131736,0.11400403,0.0838165,0.0002766069,0.00046174272,0.0006766223,0.0005308836,0.00019383004,0.00061787426,0.0031616974,0.0007210026,0.0033246486,0.0076361736
132,0.528,306.528,0.0060316585,0.5614262,0.5476296,0.0034853166,0.0032578367,0.0044296817,0.008779938,0.15099661,0.00508831,0.0028750023,0.14715552,0.15229481,0.00052259356,0.0010281849,0.95483375,0.9329326,0.00011953427,0.00071032706,0.00035329102,0.00018051239,0.00014972228,0.00014640477,0.00015231424,0.0001792842,0.0057643196,0.46470854,0.00024841286,4.6814905e-05,0.42134413,0.5706274,0.00089569204,0.00025991345,0.9033979,0.79232305,1.4990528e-05,0.000726637,0.00052744825,0.00054967246,0.00011173861,0.000110041394,0.0002976975,0.0025418291,0.00055578287,0.00333885,0.011049362,0.00046730507,0.00028193888,0.115458325,0.09048836,0.00031079593,0.00044872137,0.0005989901,0.0005218487,0.00019425206,0.00056400103,0.0026898845,0.00059769984,0.0029570858,0.0070334123
133,0.532,306.532,0.005716847,0.5180428,0.50953734,0.003149024,0.0028973469,0.00416772,0.008297549,0.13795984,0.0049825064,0.0027977803,0.1322403,0.13442293,0.000488388,0.0010951677,0.955043,0.9326291,0.0001163761,0.0006842128,0.00033624202,0.00016731146,0.00013593909,0.00013450939,0.00015307762,0.00014528292,0.004593591,0.44771525,0.0002887358,4.6278434e-05,0.3901065,0.55699694,0.0009005488,0.0002723441,0.9025644,0.7881993,1.3683143e-05,0.0007217437,0.0005401287,0.0005158367,0.00010224417,0.00010066225,0.0002565261,0.0021945492,0.00068539236,0.0037399088,0.014985642,0.0005108991,0.00030435086,0.12183026,0.09735236,0.00032039997,0.00038905366,0.0005295683,0.00047804383,0.00019053175,0.0005405464,0.0022088974,0.00049761764,0.0024215463,0.007244565
134,0.536,306.536,0.0052904,0.5068414,0.4911691,0.003014187,0.002558795,0.0039609885,0.00797603,0.1410161,0.004877586,0.0028290085,0.14422274,0.1451941,0.00045738788,0.0011110218,0.95596,0.9358954,0.000109849214,0.00071028783,0.00031441517,0.00015552151,0.00012808962,0.00012583556,0.00014766643,0.00012381995,0.0037481384,0.42931995,0.00032575554,4.582356e-05,0.39193025,0.5399825,0.00080750935,0.000284423,0.9076393,0.79937714,1.0926862e-05,0.00071467576,0.0005107864,0.0005141966,8.872943e-05,8.407353e-05,0.00021600892,0.0018501291,0.0007601739,0.0046364116,0.021247113,0.00056372077,0.00029827736,0.11908759,0.09974667,0.0003371321,0.0004119331,0.00059159985,0.0005828414,0.0002209046,0.0006203735,0.0022999013,0.00051593164,0.0025637797,0.007615179
135,0.54,306.54,0.0052244756,0.4848685,0.47664028,0.0029237277,0.0025505011,0.0041358257,0.008335175,0.15203917,0.004654213,0.002821667,0.15801373,0.15971796,0.00045972882,0.0011866689,0.95768946,0.9393027,0.00011758795,0.0007642647,0.00032160574,0.00014989641,0.00012774895,0.00012985923,0.00014756425,0.000110855195,0.0033470655,0.4369594,0.000356725,4.2744578e-05,0.39437187,0.5332242,0.00080519996,0.00029321678,0.91384536,0.8131703,8.687846e-06,0.00062601664,0.00048391038,0.00047929064,7.294853e-05,6.816744e-05,0.00017327892,0.0016204363,0.00080234546,0.0050314874,0.025386225,0.00059204997,0.00029403256,0.11590153,0.10138208,0.00034263902,0.00042793728,0.0006529761,0.00064644474,0.00024548086,0.00061403116,0.0022544425,0.0005350768,0.002550864,0.007743096
136,0.544,306.544,0.0055178264,0.45812732,0.46485278,0.0032469511,0.0028760333,0.0050215195,0.0095908,0.1652162,0.0047667567,0.0031529001,0.18033981,0.1808124,0.00048939785,0.0013621321,0.9583461,0.9407066,0.00013236962,0.0008942684,0.00036129853,0.00015641592,0.00013332984,0.00014973957,0.00017170525,0.000110607376,0.0033024803,0.4679057,0.00042369528,3.955325e-05,0.38069955,0.53012747,0.0008286956,0.00033275236,0.9159665,0.8114596,7.964502e-06,0.0005540391,0.00045123664,0.00044592837,6.38583e-05,5.45999e-05,0.00013185287,0.0013663853,0.0008022785,0.0044426774,0.023850715,0.0005510684,0.00026742442,0.1028384,0.097712144,0.000321641,0.00035336395,0.00058834825,0.00058612594,0.00023093504,0.0005673408,0.0018679466,0.0004937234,0.0023316403,0.007873208
137,0.548,306.548,0.005566015,0.43650344,0.4498653,0.0033948356,0.0031221285,0.0061819917,0.011103562,0.17093138,0.004915884,0.003440549,0.19308902,0.19060194,0.0005156401,0.0015060547,0.9578966,0.94011295,0.0001455218,0.0010258494,0.00038691287,0.00016172536,0.00013636764,0.00016219204,0.00018855423,0.00011091208,0.0032517496,0.47727358,0.00048755173,3.7901573e-05,0.3892976,0.5126117,0.0007880586,0.00035873198,0.9179988,0.8046213,6.8708164e-06,0.0005031981,0.00042115294,0.0004317095,6.1373794e-05,4.85537e-05,0.000109962515,0.0011971138,0.00078349217,0.0037829068,0.021957735,0.0005149161,0.000247284,0.087130256,0.087466285,0.00031834564,0.00030527238,0.00054174586,0.0005869089,0.00022526016,0.00054217514,0.0016244589,0.00046313193,0.0022467577,0.007836987
138,0.552,306.552,0.0059003327,0.43291587,0.45102996,0.0031723147,0.0029114764,0.006676333,0.0126382895,0.18024439,0.0050773458,0.0036262758,0.20007774,0.1867684,0.000532378,0.0016406398,0.958285,0.94018817,0.00016589051,0.0010633174,0.00038650128,0.00016215771,0.00012504015,0.00016301409,0.00019292416,0.00010807398,0.00309346,0.44715384,0.00048017383,3.8331327e-05,0.4109305,0.48284125,0.0006752087,0.00036418362,0.92082155,0.8074895,5.9812874e-06,0.00048187844,0.0004230925,0.00042492978,5.6372428e-05,4.6114772e-05,0.000102786806,0.0010295361,0.0007048166,0.0032958854,0.021857174,0.00051671534,0.0002568254,0.07596549,0.07959255,0.00032144666,0.00031747337,0.0006328262,0.0006576972,0.00023610497,0.00055510073,0.0015166714,0.00046746037,0.0023009814,0.007619465
139,0.556,306.556,0.006319887,0.42440417,0.44785735,0.0033687842,0.0030977305,0.007313924,0.013422241,0.19157061,0.005583427,0.0041884487,0.2077333,0.18444972,0.00057823583,0.0020239218,0.9581735,0.9376401,0.00017344703,0.0011197543,0.0003930651,0.00015612744,0.000121145466,0.00017246825,0.00019572863,9.359815e-05,0.0029209072,0.43336,0.0004878843,3.726079e-05,0.4098947,0.45956203,0.00064935436,0.00035380403,0.9169009,0.80776703,5.997137e-06,0.0004982186,0.00046697826,0.00043980437,5.203333e-05,4.6634977e-05,0.00010576539,0.0009801054,0.0006453632,0.002915431,0.022701623,0.0005175775,0.00024911232,0.07562495,0.0843916,0.00034391077,0.00036582028,0.00077011634,0.0007107042,0.00024581345,0.00056441023,0.0014872468,0.00047504168,0.002351674,0.0077155284
140,0.56,306.56,0.0072862934,0.41421956,0.44842905,0.0037841396,0.0038200791,0.009080471,0.014809043,0.197453,0.0061105336,0.004721017,0.2042929,0.1829534,0.0006466364,0.002612404,0.9584271,0.9359929,0.00019801554,0.0010833602,0.000395453,0.00014215018,0.00011549225,0.00018892567,0.00018380665,7.5861775e-05,0.0028133846,0.4218277,0.00045786926,3.0862004e-05,0.36621138,0.4402093,0.0006581546,0.0003220801,0.90986264,0.81656885,7.226134e-06,0.00059245864,0.00053355575,0.00048305528,5.325953e-05,4.99023e-05,0.00011741316,0.0009612459,0.00063121703,0.003221446,0.0246158,0.00051770627,0.0002532561,0.07583796,0.09039409,0.0003689621,0.00039001618,0.0007310351,0.0006719601,0.00022888697,0.00051959057,0.0012489378,0.00042738506,0.0022224635,0.0069450676
141,0.564,306.564,0.008680301,0.41779497,0.46233225,0.004010909,0.004548717,0.011118342,0.016833894,0.20859696,0.006297122,0.0048127687,0.21137099,0.18970834,0.00069770153,0.0030159687,0.9592059,0.9373313,0.00019956085,0.0010298967,0.00039266268,0.0001283142,0.000108576416,0.00019263741,0.00017215576,6.697009e-05,0.0029599199,0.43590486,0.00041863404,2.793918e-05,0.36392134,0.43111956,0.0006394763,0.00028586088,0.90630984,0.8288145,8.053522e-06,0.0006826099,0.00060884724,0.0005144466,5.8271755e-05,5.3167627e-05,0.00012284338,0.0008953844,0.00070538,0.0035751148,0.02785406,0.00057973684,0.00031910927,0.07706042,0.09327053,0.00041083188,0.00041327375,0.0006948708,0.000643314,0.00021903733,0.0004924848,0.0011012806,0.00041062263,0.0022140942,0.0069167013
142,0.568,306.568,0.009370397,0.41094005,0.4631642,0.004169777,0.0050793793,0.012412913,0.018660346,0.21054813,0.0066759153,0.005088324,0.21229681,0.18781519,0.0007310957,0.0032673874,0.960328,0.94002825,0.00020016095,0.00095144904,0.00039046616,0.00011868459,0.000106290325,0.00019113184,0.000169789,6.496061e-05,0.0031109895,0.4709962,0.00040184788,3.168827e-05,0.3924845,0.42349657,0.00057471165,0.00029238744,0.9081883,0.83781624,8.354816e-06,0.00076370593,0.0007023504,0.00058742624,6.3052954e-05,5.6000958e-05,0.00012180723,0.00083853013,0.00083281833,0.0044928524,0.034390036,0.0007621621,0.00045787668,0.07945672,0.10694489,0.0005525858,0.0005337776,0.00082966784,0.0007042066,0.00024856854,0.000554076,0.0012069598,0.0004512248,0.0024436414,0.0077196774
143,0.572,306.572,0.010268132,0.39725417,0.45360103,0.004580723,0.0054670237,0.013430359,0.020443803,0.20468178,0.0070708054,0.005563049,0.2193522,0.18798086,0.00078474486,0.0035902953,0.96184105,0.94254136,0.00019736523,0.0008948053,0.0004056285,0.00011564299,0.000105456216,0.00018454404,0.0001757848,6.17375e-05,0.003424557,0.5117974,0.0003797243,3.113622e-05,0.40299156,0.4344152,0.00057695014,0.00031652802,0.9067352,0.83728594,8.733352e-06,0.00080300705,0.0008315678,0.0006964307,6.515871e-05,5.7727353e-05,0.00011699596,0.00086384936,0.0010805972,0.0056489618,0.041843653,0.0009334148,0.0005566552,0.08515846,0.12840003,0.0007281743,0.000650637,0.0009976052,0.0007597089,0.0002741432,0.00054561923,0.0011638686,0.00047737538,0.0027494205,0.0080433665
144,0.576,306.576,0.011111356,0.38783565,0.45703456,0.004967984,0.0058762725,0.014716157,0.02134479,0.19628909,0.0073913303,0.006100123,0.2399728,0.20585266,0.0008186455,0.003846035,0.96387935,0.9478062,0.000189265,0.0008294429,0.00040160792,0.000106764,9.3550145e-05,0.00018137676,0.00019516677,5.85343e-05,0.0035774934,0.5588128,0.00033750755,2.613712e-05,0.38405186,0.45619625,0.00061180047,0.0003020145,0.90432256,0.837099,9.412357e-06,0.0008206254,0.0009784536,0.0008247827,6.6521934e-05,5.4389897e-05,0.00010630593,0.0009402789,0.0013998436,0.0067546503,0.045692913,0.0010047073,0.00060236274,0.09867869,0.1486462,0.0008208515,0.0007123591,0.0011586723,0.0007889745,0.00028242476,0.00051983824,0.0009969063,0.00046606176,0.0029011816,0.00814024
145,0.58,306.58,0.011092212,0.37210524,0.45650747,0.0050014514,0.0055823284,0.013813431,0.019892693,0.18867095,0.007017269,0.005838231,0.2431448,0.22319685,0.0008120903,0.0038194146,0.96548957,0.9526223,0.00017212916,0.0006472724,0.00037102943,9.623355e-05,8.104744e-05,0.00016508653,0.00019142346,5.281259e-05,0.0033619967,0.606641,0.00027107086,1.8824006e-05,0.39904168,0.48675758,0.00061058096,0.0002550609,0.90661466,0.8520904,9.200585e-06,0.0008136647,0.0011511117,0.0009654569,6.292531e-05,4.7610403e-05,9.5082665e-05,0.0009671882,0.0015471345,0.007925375,0.048852015,0.0010167597,0.0006744575,0.103396595,0.1572906,0.00089355843,0.00074907765,0.0012301508,0.00080052286,0.00029195874,0.0004669631,0.0009475319,0.00046834792,0.002844178,0.008219312
146,0.584,306.584,0.010802301,0.3709197,0.4669239,0.004713101,0.0045076096,0.011063966,0.01605168,0.19106105,0.006970195,0.004825486,0.2381331,0.24834967,0.00076546037,0.0036195472,0.9666324,0.955162,0.00015257487,0.0004941937,0.000327589,8.640402e-05,6.8482994e-05,0.00013665532,0.00018488061,4.484093e-05,0.002896924,0.6472133,0.00021579834,1.7125807e-05,0.43248728,0.50695896,0.0005317506,0.00022951547,0.9094297,0.8597787,8.047802e-06,0.00074680644,0.0013118639,0.0010196179,5.533025e-05,4.0185296e-05,8.5688356e-05,0.00086780894,0.0015893839,0.008450571,0.049234934,0.0010453854,0.0007867976,0.1041704,0.158265,0.00095798465,0.0007974177,0.0012971214,0.0008194642,0.00030726317,0.00045820957,0.00096941437,0.00046048322,0.0030012308,0.008230448
147,0.588,306.588,0.010417581,0.38467762,0.47740015,0.0042175483,0.0037119829,0.009794272,0.013004977,0.19023038,0.0070996173,0.0045747957,0.24362548,0.2571979,0.00071487844,0.0036327234,0.96727353,0.9564942,0.0001356339,0.00040483446,0.0002911887,7.840596e-05,6.194833e-05,0.00011947091,0.00016137706,3.6323057e-05,0.0025646468,0.68188965,0.00017480682,1.5220711e-05,0.45041406,0.50925726,0.0004332652,0.00019320748,0.9085778,0.86344,6.9372963e-06,0.00068353035,0.0013884545,0.0010284553,5.3541444e-05,3.81993e-05,8.795298e-05,0.0009108255,0.0017192258,0.009241549,0.056938518,0.0012444064,0.0009026303,0.11312434,0.17227563,0.001083835,0.00091538747,0.0014272104,0.0008580224,0.0003258686,0.00046163713,0.0009711902,0.00049415417,0.0032581682,0.008415647
148,0.592,306.592,0.010909353,0.42537946,0.50277466,0.0037180292,0.0032175654,0.009175079,0.0117868595,0.19297352,0.0071703005,0.00472994,0.25832897,0.26364934,0.0006688368,0.003663129,0.96878034,0.9590363,0.00013335019,0.00033482653,0.00025649532,6.9446636e-05,5.1818373e-05,0.000104836676,0.00013635647,2.9557037e-05,0.0023313633,0.69738996,0.0001325213,1.1960146e-05,0.4477146,0.5006148,0.00033396162,0.00013727817,0.9126666,0.87567973,5.6757735e-06,0.00058630534,0.0013368992,0.0009241302,5.1157545e-05,3.715477e-05,9.6830685e-05,0.0009804243,0.0020073107,0.010710671,0.06449497,0.0014343221,0.0010628236,0.1322529,0.18589476,0.0010809194,0.0010051022,0.0014072987,0.00080326915,0.0003305111,0.00044048572,0.00095659785,0.0005530875,0.0034568862,0.008468563
149,0.596,306.596,0.009982548,0.47546875,0.5328137,0.003224997,0.0025535247,0.0076754824,0.009442728,0.18279317,0.0070072087,0.0043860376,0.25564602,0.2758607,0.0006099371,0.003026226,0.969583,0.9612749,0.00012338551,0.00028379948,0.00022301305,6.148023e-05,4.7623256e-05,8.965882e-05,0.00011799794,2.7060321e-05,0.0022915853,0.70231783,0.00011286312,1.0052128e-05,0.46407235,0.5040182,0.00027128105,0.00011428018,0.91532904,0.88247055,5.0079866e-06,0.0005009932,0.0012173674,0.00081420486,4.786114e-05,3.4899826e-05,9.980833e-05,0.0009183773,0.0020602017,0.010633853,0.061462756,0.0014699075,0.0010930867,0.14607762,0.19136979,0.001032646,0.0009829684,0.001314287,0.000759011,0.00031527967,0.0004212218,0.0009789836,0.00061292516,0.0035632267,0.00817564
150,0.6,306.6,0.008650935,0.5009498,0.5379982,0.0027644152,0.0019340871,0.00580259,0.0068141925,0.16017249,0.006321034,0.003510946,0.23632097,0.2807121,0.0005573231,0.0022220914,0.9697407,0.96406454,0.00012203313,0.00021277957,0.00019851745,6.0757517e-05,4.9040063e-05,7.165354e-05,0.00010122208,2.7617425e-05,0.0024210187,0.7254505,0.00010259851,9.653663e-06,0.4893597,0.50622106,0.00023567291,0.000105468185,0.91715455,0.87929785,4.6206205e-06,0.00045562506,0.0012049174,0.0007924089,4.348613e-05,3.1384487e-05,9.602766e-05,0.00078011653,0.0020589894,0.010607853,0.06055303,0.0014243651,0.000903112,0.14773285,0.20022425,0.0010133847,0.00096805295,0.001345811,0.0007379892,0.00030768703,0.0004577994,0.0011919878,0.0007177688,0.0038180123,0.007780536
151,0.604,306.604,0.0075567514,0.51099813,0.53390706,0.002301404,0.0013246761,0.004290395,0.005033899,0.14819337,0.0060492596,0.0027361754,0.23951346,0.31490147,0.00052030396,0.0017203342,0.970181,0.9661706,0.000114373164,0.00016356823,0.00016368914,5.427192e-05,4.340861e-05,6.406459e-05,8.943953e-05,2.8329447e-05,0.0026309118,0.7346978,8.805419e-05,9.564875e-06,0.5060145,0.5181763,0.00023806501,9.605917e-05,0.91923904,0.8761097,5.0934186e-06,0.00041398293,0.0011481374,0.00075909024,4.374125e-05,3.253085e-05,0.00010162528,0.0007298778,0.0020889104,0.01107695,0.06380086,0.0013098832,0.000806112,0.15423691,0.20440365,0.0008798053,0.0007973797,0.0012843772,0.00070601114,0.00029105687,0.00045062564,0.0013610829,0.0007766704,0.0036967604,0.007712959
152,0.608,306.608,0.0061269235,0.5223825,0.54477817,0.0020708682,0.0009667764,0.0031496466,0.003527938,0.15204455,0.0055547142,0.0025945813,0.262588,0.34186122,0.00051657646,0.0016017214,0.969505,0.9662191,9.760775e-05,0.00013765988,0.00013142209,4.7261947e-05,4.3155836e-05,6.504504e-05,7.2427356e-05,2.8741933e-05,0.0029110457,0.72109014,9.0895e-05,1.0218753e-05,0.5157438,0.52033895,0.00024539756,0.00010423559,0.92329645,0.87856644,5.755452e-06,0.00037869893,0.0010762054,0.00075566914,4.208709e-05,3.2418957e-05,0.00011241276,0.00077171304,0.002097619,0.011324506,0.06061234,0.0012918944,0.00066575344,0.16192491,0.19042383,0.00072780065,0.0007302121,0.0012126999,0.00073453685,0.0002850167,0.0005089709,0.001583063,0.0009219043,0.0041003693,0.007353981
153,0.612,306.612,0.0050293636,0.5715233,0.5947678,0.0018515545,0.000652291,0.0022837548,0.0026710555,0.17455795,0.005158182,0.002221453,0.3065629,0.39258114,0.00049693725,0.0013252256,0.96996313,0.96724755,8.9315006e-05,0.00011679097,0.000120365235,4.5994035e-05,4.726136e-05,6.060515e-05,6.448235e-05,3.1606178e-05,0.0032116172,0.7036001,8.6698914e-05,1.2791279e-05,0.5369977,0.5208641,0.00024250944,0.00010891778,0.9275418,0.8808915,6.0821967e-06,0.00037095745,0.0010316962,0.0007141648,4.1993677e-05,3.299828e-05,0.000116570234,0.0007758666,0.0019652,0.009704122,0.046081692,0.0011507055,0.0005994573,0.14822078,0.1654166,0.000622777,0.0006256653,0.0011465914,0.000741461,0.0002848518,0.00050275563,0.0017758869,0.0010957563,0.0041136215,0.0070949467
154,0.616,306.616,0.0039295536,0.6558802,0.6742606,0.0016803369,0.00040002167,0.0016410148,0.0021170538,0.2274454,0.004734816,0.0017351394,0.3929373,0.47880614,0.00046542843,0.00096933957,0.971262,0.968474,8.740234e-05,0.00010412165,0.00011938312,4.9248945e-05,5.3079333e-05,5.5594803e-05,5.9317335e-05,3.503638e-05,0.00366264,0.68787533,7.9884885e-05,1.9011199e-05,0.5919502,0.5447968,0.00022290654,0.00011605693,0.9317817,0.88935804,5.8637365e-06,0.0003656693,0.0010209652,0.0007050574,4.527038e-05,3.539798e-05,0.000118669785,0.00074766274,0.0019891085,0.008033157,0.036619715,0.0010717814,0.0005086765,0.1293492,0.15755393,0.00058538344,0.00057903084,0.0011587556,0.0008212868,0.00029872672,0.00056342396,0.002134556,0.0013083484,0.004760949,0.006818357
155,0.62,306.62,0.0035133658,0.74380225,0.7564161,0.0017359474,0.00031141136,0.0014007083,0.0019323749,0.32141954,0.004804798,0.0015189152,0.5365295,0.6039716,0.00045738762,0.0007517296,0.9734151,0.9697416,8.162815e-05,0.000100523735,0.00013040147,5.615829e-05,5.8364298e-05,5.5427212e-05,5.5688353e-05,3.8949678e-05,0.004302882,0.6792593,7.3957875e-05,2.3828834e-05,0.6254036,0.5601463,0.00020982105,0.00010127913,0.9379334,0.90368474,6.3085554e-06,0.00035782225,0.0010094258,0.00067861105,4.8424685e-05,4.135523e-05,0.0001384669,0.00073919067,0.001990417,0.0072570355,0.03132987,0.0009391601,0.00050893356,0.1387368,0.15940268,0.0005153256,0.0005399043,0.0012351191,0.0008291735,0.0003171137,0.00059051084,0.0023348262,0.001567891,0.005164288,0.006817117
156,0.624,306.624,0.0034516107,0.811935,0.8242082,0.0018477241,0.00027486056,0.0013583642,0.002051004,0.46784788,0.004971271,0.0013743797,0.7026175,0.72753054,0.0004887676,0.0006412911,0.9762714,0.97170526,7.4537886e-05,0.000103064966,0.00014210748,6.3831816e-05,6.9103444e-05,5.887214e-05,4.75433e-05,4.333474e-05,0.005562569,0.68464905,7.034209e-05,2.4022294e-05,0.649707,0.5924346,0.00019868446,7.917466e-05,0.9426846,0.9201529,6.6230955e-06,0.00036823683,0.001029879,0.00067691837,5.036763e-05,4.8089572e-05,0.00017107037,0.0008586797,0.0019891416,0.007648606,0.034139823,0.0010686524,0.0006042214,0.15048969,0.15816492,0.00046841823,0.0005814432,0.0013436275,0.0008677118,0.00033428718,0.0006009664,0.0023755536,0.0017579157,0.005605997,0.0071760835
